#X		#Y		#Wave		#Intensity
150.000000	-1312.000000	1819.744141	2968.181641
150.000000	-1312.000000	1818.779297	2874.858887
150.000000	-1312.000000	1817.815430	2967.532227
150.000000	-1312.000000	1816.850586	2883.966064
150.000000	-1312.000000	1815.884766	2974.006592
150.000000	-1312.000000	1814.919922	2849.034912
150.000000	-1312.000000	1813.954102	3006.369629
150.000000	-1312.000000	1812.989258	2997.946289
150.000000	-1312.000000	1812.023438	2953.289795
150.000000	-1312.000000	1811.056641	3035.453613
150.000000	-1312.000000	1810.090820	3039.965332
150.000000	-1312.000000	1809.124023	2951.356201
150.000000	-1312.000000	1808.157227	2940.367920
150.000000	-1312.000000	1807.190430	3105.199219
150.000000	-1312.000000	1806.223633	3006.293945
150.000000	-1312.000000	1805.255859	3041.820068
150.000000	-1312.000000	1804.288086	3043.740723
150.000000	-1312.000000	1803.320313	3071.493408
150.000000	-1312.000000	1802.352539	3163.801270
150.000000	-1312.000000	1801.384766	2951.377197
150.000000	-1312.000000	1800.416016	2984.294922
150.000000	-1312.000000	1799.447266	3024.941406
150.000000	-1312.000000	1798.478516	3112.018311
150.000000	-1312.000000	1797.509766	3041.684082
150.000000	-1312.000000	1796.540039	3020.387939
150.000000	-1312.000000	1795.571289	3035.203613
150.000000	-1312.000000	1794.601563	3101.576904
150.000000	-1312.000000	1793.631836	3152.455322
150.000000	-1312.000000	1792.661133	2953.334961
150.000000	-1312.000000	1791.691406	3048.024658
150.000000	-1312.000000	1790.720703	3134.945068
150.000000	-1312.000000	1789.750000	3005.494141
150.000000	-1312.000000	1788.779297	3092.386230
150.000000	-1312.000000	1787.807617	3027.357666
150.000000	-1312.000000	1786.835938	3034.421875
150.000000	-1312.000000	1785.865234	3098.092529
150.000000	-1312.000000	1784.892578	3112.856201
150.000000	-1312.000000	1783.920898	3107.036865
150.000000	-1312.000000	1782.949219	3129.506592
150.000000	-1312.000000	1781.976563	3092.835205
150.000000	-1312.000000	1781.003906	3048.468262
150.000000	-1312.000000	1780.031250	3088.924805
150.000000	-1312.000000	1779.057617	3095.963379
150.000000	-1312.000000	1778.084961	3138.960938
150.000000	-1312.000000	1777.111328	3035.555176
150.000000	-1312.000000	1776.137695	3114.493408
150.000000	-1312.000000	1775.164063	3149.757813
150.000000	-1312.000000	1774.189453	3113.145264
150.000000	-1312.000000	1773.214844	3163.790283
150.000000	-1312.000000	1772.240234	3147.713623
150.000000	-1312.000000	1771.265625	3075.218018
150.000000	-1312.000000	1770.291016	3213.023193
150.000000	-1312.000000	1769.315430	3135.417236
150.000000	-1312.000000	1768.340820	3191.129150
150.000000	-1312.000000	1767.365234	3075.122314
150.000000	-1312.000000	1766.389648	3197.436279
150.000000	-1312.000000	1765.413086	3186.499756
150.000000	-1312.000000	1764.436523	3175.567627
150.000000	-1312.000000	1763.460938	3200.485840
150.000000	-1312.000000	1762.484375	3248.431885
150.000000	-1312.000000	1761.506836	3168.393066
150.000000	-1312.000000	1760.530273	3195.855225
150.000000	-1312.000000	1759.552734	3190.049316
150.000000	-1312.000000	1758.575195	3179.130859
150.000000	-1312.000000	1757.597656	3221.915527
150.000000	-1312.000000	1756.620117	3213.551270
150.000000	-1312.000000	1755.641602	3205.190430
150.000000	-1312.000000	1754.663086	3329.715332
150.000000	-1312.000000	1753.684570	3270.235596
150.000000	-1312.000000	1752.706055	3335.943359
150.000000	-1312.000000	1751.727539	3245.842773
150.000000	-1312.000000	1750.748047	3316.634033
150.000000	-1312.000000	1749.768555	3252.103027
150.000000	-1312.000000	1748.789063	3220.777344
150.000000	-1312.000000	1747.809570	3322.146973
150.000000	-1312.000000	1746.829102	3306.125732
150.000000	-1312.000000	1745.848633	3381.928711
150.000000	-1312.000000	1744.868164	3248.604980
150.000000	-1312.000000	1743.887695	3278.498779
150.000000	-1312.000000	1742.907227	3456.211670
150.000000	-1312.000000	1741.925781	3386.664795
150.000000	-1312.000000	1740.945313	3431.795898
150.000000	-1312.000000	1739.962891	3420.869629
150.000000	-1312.000000	1738.981445	3290.255859
150.000000	-1312.000000	1738.000000	3383.754150
150.000000	-1312.000000	1737.017578	3515.395508
150.000000	-1312.000000	1736.035156	3438.290527
150.000000	-1312.000000	1735.052734	3445.185303
150.000000	-1312.000000	1734.070313	3523.306641
150.000000	-1312.000000	1733.086914	3339.428467
150.000000	-1312.000000	1732.103516	3503.994385
150.000000	-1312.000000	1731.120117	3610.017578
150.000000	-1312.000000	1730.136719	3609.242676
150.000000	-1312.000000	1729.153320	3514.444824
150.000000	-1312.000000	1728.168945	3521.312988
150.000000	-1312.000000	1727.184570	3505.317139
150.000000	-1312.000000	1726.200195	3616.305176
150.000000	-1312.000000	1725.215820	3546.976807
150.000000	-1312.000000	1724.231445	3571.601074
150.000000	-1312.000000	1723.246094	3654.586426
150.000000	-1312.000000	1722.260742	3544.696533
150.000000	-1312.000000	1721.275391	3726.587891
150.000000	-1312.000000	1720.289063	3763.833740
150.000000	-1312.000000	1719.303711	3608.347656
150.000000	-1312.000000	1718.317383	3747.010254
150.000000	-1312.000000	1717.331055	3624.544922
150.000000	-1312.000000	1716.344727	3793.553711
150.000000	-1312.000000	1715.357422	3734.469727
150.000000	-1312.000000	1714.371094	3693.141846
150.000000	-1312.000000	1713.383789	3596.117432
150.000000	-1312.000000	1712.396484	3734.604248
150.000000	-1312.000000	1711.409180	3807.215576
150.000000	-1312.000000	1710.420898	3641.895752
150.000000	-1312.000000	1709.432617	3815.708008
150.000000	-1312.000000	1708.444336	3673.224854
150.000000	-1312.000000	1707.456055	3776.137695
150.000000	-1312.000000	1706.467773	3684.297607
150.000000	-1312.000000	1705.478516	3832.670654
150.000000	-1312.000000	1704.489258	3788.882080
150.000000	-1312.000000	1703.500000	3848.721680
150.000000	-1312.000000	1702.510742	3797.368652
150.000000	-1312.000000	1701.521484	3965.798340
150.000000	-1312.000000	1700.531250	3954.849365
150.000000	-1312.000000	1699.541016	3908.556152
150.000000	-1312.000000	1698.550781	3915.294434
150.000000	-1312.000000	1697.560547	4038.125977
150.000000	-1312.000000	1696.569336	3969.134766
150.000000	-1312.000000	1695.578125	3963.241699
150.000000	-1312.000000	1694.586914	3977.529053
150.000000	-1312.000000	1693.595703	4054.851807
150.000000	-1312.000000	1692.604492	3958.183105
150.000000	-1312.000000	1691.612305	4224.521973
150.000000	-1312.000000	1690.620117	4155.578613
150.000000	-1312.000000	1689.627930	4137.055664
150.000000	-1312.000000	1688.635742	4216.780273
150.000000	-1312.000000	1687.642578	4419.875000
150.000000	-1312.000000	1686.650391	4232.606934
150.000000	-1312.000000	1685.657227	4302.190918
150.000000	-1312.000000	1684.664063	4505.137207
150.000000	-1312.000000	1683.669922	4360.747559
150.000000	-1312.000000	1682.676758	4390.007324
150.000000	-1312.000000	1681.682617	4389.071289
150.000000	-1312.000000	1680.688477	4473.635254
150.000000	-1312.000000	1679.694336	4548.106445
150.000000	-1312.000000	1678.699219	4547.137207
150.000000	-1312.000000	1677.704102	4430.566406
150.000000	-1312.000000	1676.709961	4467.311035
150.000000	-1312.000000	1675.713867	4504.039551
150.000000	-1312.000000	1674.718750	4550.797852
150.000000	-1312.000000	1673.723633	4461.945801
150.000000	-1312.000000	1672.727539	4629.192871
150.000000	-1312.000000	1671.731445	4628.207031
150.000000	-1312.000000	1670.735352	4577.034668
150.000000	-1312.000000	1669.738281	4653.833008
150.000000	-1312.000000	1668.742188	4582.610840
150.000000	-1312.000000	1667.745117	4654.359863
150.000000	-1312.000000	1666.748047	4560.602539
150.000000	-1312.000000	1665.750000	4559.631836
150.000000	-1312.000000	1664.752930	4543.624512
150.000000	-1312.000000	1663.754883	4497.557129
150.000000	-1312.000000	1662.756836	4451.508789
150.000000	-1312.000000	1661.758789	4640.906250
150.000000	-1312.000000	1660.760742	4604.863281
150.000000	-1312.000000	1659.761719	4371.060547
150.000000	-1312.000000	1658.762695	4427.698730
150.000000	-1312.000000	1657.763672	4501.829102
150.000000	-1312.000000	1656.764648	4493.366211
150.000000	-1312.000000	1655.765625	4352.335449
150.000000	-1312.000000	1654.765625	4438.937988
150.000000	-1312.000000	1653.765625	4427.993164
150.000000	-1312.000000	1652.765625	4409.553711
150.000000	-1312.000000	1651.765625	4383.624023
150.000000	-1312.000000	1650.764648	4507.626465
150.000000	-1312.000000	1649.764648	4506.668457
150.000000	-1312.000000	1648.763672	4505.710449
150.000000	-1312.000000	1647.761719	4449.816895
150.000000	-1312.000000	1646.760742	4396.443359
150.000000	-1312.000000	1645.758789	4497.846680
150.000000	-1312.000000	1644.756836	4509.368164
150.000000	-1312.000000	1643.754883	4523.379883
150.000000	-1312.000000	1642.752930	4579.791016
150.000000	-1312.000000	1641.750977	4616.226563
150.000000	-1312.000000	1640.748047	4794.769531
150.000000	-1312.000000	1639.745117	4606.787109
150.000000	-1312.000000	1638.742188	4668.116699
150.000000	-1312.000000	1637.738281	4577.420898
150.000000	-1312.000000	1636.735352	4681.081543
150.000000	-1312.000000	1635.731445	4605.365723
150.000000	-1312.000000	1634.727539	4614.348145
150.000000	-1312.000000	1633.723633	4454.029297
150.000000	-1312.000000	1632.718750	4423.213867
150.000000	-1312.000000	1631.714844	4469.558594
150.000000	-1312.000000	1630.709961	4476.073730
150.000000	-1312.000000	1629.705078	4288.556152
150.000000	-1312.000000	1628.699219	4389.614258
150.000000	-1312.000000	1627.694336	4338.952148
150.000000	-1312.000000	1626.688477	4270.909668
150.000000	-1312.000000	1625.682617	4215.323242
150.000000	-1312.000000	1624.676758	4204.489258
150.000000	-1312.000000	1623.669922	4178.752930
150.000000	-1312.000000	1622.664063	4232.510742
150.000000	-1312.000000	1621.657227	4144.695801
150.000000	-1312.000000	1620.650391	4218.300781
150.000000	-1312.000000	1619.642578	4133.007813
150.000000	-1312.000000	1618.635742	4109.794922
150.000000	-1312.000000	1617.627930	4153.584961
150.000000	-1312.000000	1616.620117	4137.819336
150.000000	-1312.000000	1615.612305	4146.862305
150.000000	-1312.000000	1614.604492	4101.348633
150.000000	-1312.000000	1613.595703	3974.042725
150.000000	-1312.000000	1612.586914	4052.514893
150.000000	-1312.000000	1611.578125	4150.778320
150.000000	-1312.000000	1610.569336	4216.791504
150.000000	-1312.000000	1609.559570	4136.632324
150.000000	-1312.000000	1608.550781	4106.036621
150.000000	-1312.000000	1607.541016	4172.017090
150.000000	-1312.000000	1606.530273	4297.379883
150.000000	-1312.000000	1605.520508	4353.391602
150.000000	-1312.000000	1604.509766	4340.096191
150.000000	-1312.000000	1603.500000	4386.179199
150.000000	-1312.000000	1602.489258	4439.662598
150.000000	-1312.000000	1601.477539	4431.302246
150.000000	-1312.000000	1600.466797	4509.476074
150.000000	-1312.000000	1599.455078	4473.914551
150.000000	-1312.000000	1598.443359	4334.575684
150.000000	-1312.000000	1597.431641	4410.249023
150.000000	-1312.000000	1596.419922	4305.564941
150.000000	-1312.000000	1595.407227	4156.471191
150.000000	-1312.000000	1594.394531	4145.712891
150.000000	-1312.000000	1593.381836	4248.516113
150.000000	-1312.000000	1592.369141	4097.060547
150.000000	-1312.000000	1591.356445	4182.557129
150.000000	-1312.000000	1590.342773	4280.352539
150.000000	-1312.000000	1589.329102	4170.916992
150.000000	-1312.000000	1588.315430	4002.343506
150.000000	-1312.000000	1587.301758	4302.285156
150.000000	-1312.000000	1586.287109	4234.818359
150.000000	-1312.000000	1585.272461	4221.598145
150.000000	-1312.000000	1584.257813	4220.702637
150.000000	-1312.000000	1583.243164	4219.807617
150.000000	-1312.000000	1582.228516	4213.986816
150.000000	-1312.000000	1581.212891	4277.114746
150.000000	-1312.000000	1580.197266	4101.416992
150.000000	-1312.000000	1579.181641	4282.684570
150.000000	-1312.000000	1578.166016	4131.667969
150.000000	-1312.000000	1577.149414	4211.980469
150.000000	-1312.000000	1576.133789	4110.237793
150.000000	-1312.000000	1575.117188	4207.734863
150.000000	-1312.000000	1574.099609	4137.999023
150.000000	-1312.000000	1573.083008	4105.164551
150.000000	-1312.000000	1572.065430	4114.124512
150.000000	-1312.000000	1571.047852	4098.509277
150.000000	-1312.000000	1570.030273	4161.512207
150.000000	-1312.000000	1569.012695	4158.173340
150.000000	-1312.000000	1567.995117	4169.569336
150.000000	-1312.000000	1566.976563	4166.229492
150.000000	-1312.000000	1565.958008	4216.891113
150.000000	-1312.000000	1564.939453	4149.738281
150.000000	-1312.000000	1563.919922	4075.253174
150.000000	-1312.000000	1562.901367	4096.465332
150.000000	-1312.000000	1561.881836	4205.957031
150.000000	-1312.000000	1560.862305	4303.142090
150.000000	-1312.000000	1559.841797	4211.526855
150.000000	-1312.000000	1558.822266	4144.458984
150.000000	-1312.000000	1557.801758	4187.686523
150.000000	-1312.000000	1556.781250	4181.898438
150.000000	-1312.000000	1555.760742	4269.187012
150.000000	-1312.000000	1554.740234	4123.801270
150.000000	-1312.000000	1553.718750	4140.063965
150.000000	-1312.000000	1552.697266	4234.648926
150.000000	-1312.000000	1551.675781	4211.725098
150.000000	-1312.000000	1550.654297	4247.532227
150.000000	-1312.000000	1549.631836	4121.873535
150.000000	-1312.000000	1548.609375	4255.512207
150.000000	-1312.000000	1547.587891	4342.635254
150.000000	-1312.000000	1546.564453	4195.034180
150.000000	-1312.000000	1545.541992	4211.252930
150.000000	-1312.000000	1544.518555	4273.893066
150.000000	-1312.000000	1543.495117	4216.794434
150.000000	-1312.000000	1542.471680	4208.571289
150.000000	-1312.000000	1541.448242	4149.068359
150.000000	-1312.000000	1540.424805	4109.123047
150.000000	-1312.000000	1539.400391	4230.301758
150.000000	-1312.000000	1538.375977	4292.856934
150.000000	-1312.000000	1537.351563	4201.665527
150.000000	-1312.000000	1536.326172	4161.741699
150.000000	-1312.000000	1535.301758	4195.003418
150.000000	-1312.000000	1534.276367	4303.842285
150.000000	-1312.000000	1533.250977	4334.621094
150.000000	-1312.000000	1532.224609	4316.638672
150.000000	-1312.000000	1531.199219	4220.683105
150.000000	-1312.000000	1530.172852	4202.731934
150.000000	-1312.000000	1529.146484	4245.684570
150.000000	-1312.000000	1528.120117	4237.476563
150.000000	-1312.000000	1527.093750	4156.227539
150.000000	-1312.000000	1526.066406	4235.676270
150.000000	-1312.000000	1525.039063	4278.583984
150.000000	-1312.000000	1524.011719	4216.843262
150.000000	-1312.000000	1522.984375	4267.034668
150.000000	-1312.000000	1521.956055	4278.289063
150.000000	-1312.000000	1520.927734	4284.674805
150.000000	-1312.000000	1519.899414	4329.957031
150.000000	-1312.000000	1518.871094	4195.349121
150.000000	-1312.000000	1517.842773	4335.406738
150.000000	-1312.000000	1516.813477	4312.618164
150.000000	-1312.000000	1515.784180	4309.271973
150.000000	-1312.000000	1514.754883	4252.497559
150.000000	-1312.000000	1513.725586	4404.562988
150.000000	-1312.000000	1512.695313	4306.523438
150.000000	-1312.000000	1511.666016	4363.856934
150.000000	-1312.000000	1510.635742	4399.326660
150.000000	-1312.000000	1509.604492	4252.829102
150.000000	-1312.000000	1508.574219	4319.838867
150.000000	-1312.000000	1507.542969	4440.169434
150.000000	-1312.000000	1506.511719	4337.396484
150.000000	-1312.000000	1505.480469	4367.985352
150.000000	-1312.000000	1504.449219	4335.550781
150.000000	-1312.000000	1503.416992	4387.932617
150.000000	-1312.000000	1502.384766	4333.705566
150.000000	-1312.000000	1501.352539	4344.892578
150.000000	-1312.000000	1500.320313	4409.344727
150.000000	-1312.000000	1499.288086	4495.557617
150.000000	-1312.000000	1498.254883	4477.657715
150.000000	-1312.000000	1497.221680	4290.376465
150.000000	-1312.000000	1496.188477	4378.978027
150.000000	-1312.000000	1495.155273	4390.139160
150.000000	-1312.000000	1494.121094	4556.066406
150.000000	-1312.000000	1493.086914	4453.548828
150.000000	-1312.000000	1492.052734	4571.045898
150.000000	-1312.000000	1491.018555	4538.654297
150.000000	-1312.000000	1489.983398	4578.763184
150.000000	-1312.000000	1488.949219	4553.630371
150.000000	-1312.000000	1487.914063	4530.922852
150.000000	-1312.000000	1486.877930	4566.177246
150.000000	-1312.000000	1485.842773	4562.789551
150.000000	-1312.000000	1484.806641	4532.853027
150.000000	-1312.000000	1483.771484	4638.064941
150.000000	-1312.000000	1482.734375	4760.120117
150.000000	-1312.000000	1481.698242	4734.983398
150.000000	-1312.000000	1480.662109	4743.620117
150.000000	-1312.000000	1479.625000	4766.718750
150.000000	-1312.000000	1478.587891	4753.648926
150.000000	-1312.000000	1477.550781	4757.455078
150.000000	-1312.000000	1476.512695	4828.726074
150.000000	-1312.000000	1475.475586	4902.375488
150.000000	-1312.000000	1474.437500	4910.962891
150.000000	-1312.000000	1473.399414	5061.618652
150.000000	-1312.000000	1472.360352	5002.758301
150.000000	-1312.000000	1471.322266	5069.085449
150.000000	-1312.000000	1470.283203	5041.531738
150.000000	-1312.000000	1469.244141	5033.237305
150.000000	-1312.000000	1468.205078	5109.136230
150.000000	-1312.000000	1467.165039	5293.223145
150.000000	-1312.000000	1466.125000	5429.143555
150.000000	-1312.000000	1465.084961	5440.002441
150.000000	-1312.000000	1464.044922	5424.419922
150.000000	-1312.000000	1463.004883	5399.231934
150.000000	-1312.000000	1461.963867	5402.882324
150.000000	-1312.000000	1460.922852	5560.248535
150.000000	-1312.000000	1459.881836	5667.119141
150.000000	-1312.000000	1458.840820	5505.052734
150.000000	-1312.000000	1457.798828	5513.476563
150.000000	-1312.000000	1456.757813	5711.479004
150.000000	-1312.000000	1455.715820	5765.440430
150.000000	-1312.000000	1454.672852	5536.325195
150.000000	-1312.000000	1453.630859	5592.698242
150.000000	-1312.000000	1452.587891	5536.353516
150.000000	-1312.000000	1451.544922	5607.084961
150.000000	-1312.000000	1450.501953	5689.769043
150.000000	-1312.000000	1449.458984	5604.684082
150.000000	-1312.000000	1448.415039	5711.289063
150.000000	-1312.000000	1447.372070	5693.299805
150.000000	-1312.000000	1446.327148	5608.267578
150.000000	-1312.000000	1445.283203	5743.531738
150.000000	-1312.000000	1444.239258	5459.853516
150.000000	-1312.000000	1443.194336	5616.628906
150.000000	-1312.000000	1442.149414	5526.898926
150.000000	-1312.000000	1441.104492	5497.009277
150.000000	-1312.000000	1440.058594	5311.679688
150.000000	-1312.000000	1439.013672	5399.009766
150.000000	-1312.000000	1437.967773	5500.645508
150.000000	-1312.000000	1436.921875	5238.951660
150.000000	-1312.000000	1435.875000	5302.345215
150.000000	-1312.000000	1434.829102	5234.314941
150.000000	-1312.000000	1433.782227	5206.918457
150.000000	-1312.000000	1432.735352	5224.904785
150.000000	-1312.000000	1431.688477	5202.295898
150.000000	-1312.000000	1430.640625	5253.691895
150.000000	-1312.000000	1429.592773	5221.540039
150.000000	-1312.000000	1428.544922	5108.279785
150.000000	-1312.000000	1427.497070	5235.995117
150.000000	-1312.000000	1426.449219	5239.640137
150.000000	-1312.000000	1425.400391	5274.279785
150.000000	-1312.000000	1424.351563	5285.065918
150.000000	-1312.000000	1423.302734	5291.080078
150.000000	-1312.000000	1422.253906	5366.193848
150.000000	-1312.000000	1421.204102	5222.099121
150.000000	-1312.000000	1420.155273	5123.321289
150.000000	-1312.000000	1419.104492	5257.954590
150.000000	-1312.000000	1418.054688	5325.866699
150.000000	-1312.000000	1417.004883	5222.368164
150.000000	-1312.000000	1415.954102	5218.864258
150.000000	-1312.000000	1414.903320	5358.118164
150.000000	-1312.000000	1413.852539	5316.525391
150.000000	-1312.000000	1412.800781	5279.707031
150.000000	-1312.000000	1411.750000	5335.635742
150.000000	-1312.000000	1410.698242	5270.301270
150.000000	-1312.000000	1409.646484	5250.152344
150.000000	-1312.000000	1408.593750	5249.020996
150.000000	-1312.000000	1407.541992	5288.276367
150.000000	-1312.000000	1406.489258	5365.517090
150.000000	-1312.000000	1405.436523	5485.468262
150.000000	-1312.000000	1404.383789	5360.829590
150.000000	-1312.000000	1403.330078	5359.673340
150.000000	-1312.000000	1402.276367	5344.278320
150.000000	-1312.000000	1401.222656	5350.243164
150.000000	-1312.000000	1400.168945	5370.437500
150.000000	-1312.000000	1399.115234	5369.278320
150.000000	-1312.000000	1398.060547	5330.181641
150.000000	-1312.000000	1397.005859	5447.559082
150.000000	-1312.000000	1395.951172	5304.179688
150.000000	-1312.000000	1394.896484	5258.012695
150.000000	-1312.000000	1393.840820	5439.291992
150.000000	-1312.000000	1392.785156	5312.584961
150.000000	-1312.000000	1391.729492	5299.596680
150.000000	-1312.000000	1390.673828	5331.595703
150.000000	-1312.000000	1389.617188	5311.507324
150.000000	-1312.000000	1388.561523	5267.762207
150.000000	-1312.000000	1387.503906	5276.086426
150.000000	-1312.000000	1386.447266	5227.636230
150.000000	-1312.000000	1385.390625	5134.272461
150.000000	-1312.000000	1384.333008	5442.900391
150.000000	-1312.000000	1383.275391	5292.795898
150.000000	-1312.000000	1382.217773	5199.477051
150.000000	-1312.000000	1381.159180	5210.165527
150.000000	-1312.000000	1380.101563	5320.068359
150.000000	-1312.000000	1379.042969	5300.020996
150.000000	-1312.000000	1377.984375	5506.671387
150.000000	-1312.000000	1376.924805	5297.723633
150.000000	-1312.000000	1375.866211	5336.700684
150.000000	-1312.000000	1374.806641	5182.155762
150.000000	-1312.000000	1373.747070	5280.122559
150.000000	-1312.000000	1372.687500	5288.412109
150.000000	-1312.000000	1371.626953	5176.425293
150.000000	-1312.000000	1370.566406	5380.427734
150.000000	-1312.000000	1369.505859	5230.752441
150.000000	-1312.000000	1368.445313	5234.330078
150.000000	-1312.000000	1367.384766	5200.206055
150.000000	-1312.000000	1366.323242	5239.124023
150.000000	-1312.000000	1365.261719	5183.815918
150.000000	-1312.000000	1364.200195	5142.659180
150.000000	-1312.000000	1363.137695	5266.313477
150.000000	-1312.000000	1362.076172	5203.972656
150.000000	-1312.000000	1361.013672	5165.190430
150.000000	-1312.000000	1359.951172	5074.666016
150.000000	-1312.000000	1358.887695	5125.309082
150.000000	-1312.000000	1357.825195	5175.929688
150.000000	-1312.000000	1356.761719	5123.078613
150.000000	-1312.000000	1355.698242	5150.170410
150.000000	-1312.000000	1354.633789	5181.950195
150.000000	-1312.000000	1353.570313	5082.139160
150.000000	-1312.000000	1352.505859	5217.277832
150.000000	-1312.000000	1351.441406	5206.746582
150.000000	-1312.000000	1350.376953	5264.312500
150.000000	-1312.000000	1349.311523	5211.519043
150.000000	-1312.000000	1348.247070	5285.487305
150.000000	-1312.000000	1347.181641	5331.264648
150.000000	-1312.000000	1346.115234	5510.743164
150.000000	-1312.000000	1345.049805	5464.976074
150.000000	-1312.000000	1343.983398	5440.333496
150.000000	-1312.000000	1342.916992	5429.768066
150.000000	-1312.000000	1341.850586	5287.945313
150.000000	-1312.000000	1340.784180	5373.497070
150.000000	-1312.000000	1339.716797	5292.663574
150.000000	-1312.000000	1338.649414	5328.985840
150.000000	-1312.000000	1337.582031	5398.077637
150.000000	-1312.000000	1336.514648	5359.435059
150.000000	-1312.000000	1335.446289	5566.601074
150.000000	-1312.000000	1334.377930	5347.729492
150.000000	-1312.000000	1333.309570	5470.571289
150.000000	-1312.000000	1332.241211	5413.229492
150.000000	-1312.000000	1331.171875	5451.804688
150.000000	-1312.000000	1330.102539	5382.799805
150.000000	-1312.000000	1329.033203	5430.714355
150.000000	-1312.000000	1327.963867	5431.861816
150.000000	-1312.000000	1326.893555	5442.355469
150.000000	-1312.000000	1325.824219	5506.577637
150.000000	-1312.000000	1324.753906	5542.742676
150.000000	-1312.000000	1323.682617	5532.186035
150.000000	-1312.000000	1322.612305	5430.579102
150.000000	-1312.000000	1321.541016	5441.058105
150.000000	-1312.000000	1320.469727	5467.868652
150.000000	-1312.000000	1319.398438	5443.335938
150.000000	-1312.000000	1318.327148	5509.788574
150.000000	-1312.000000	1317.254883	5373.312500
150.000000	-1312.000000	1316.182617	5530.684082
150.000000	-1312.000000	1315.110352	5410.580566
150.000000	-1312.000000	1314.037109	5465.326172
150.000000	-1312.000000	1312.964844	5426.842285
150.000000	-1312.000000	1311.891602	5416.330078
150.000000	-1312.000000	1310.818359	5345.265625
150.000000	-1312.000000	1309.744141	5462.847168
150.000000	-1312.000000	1308.670898	5450.003906
150.000000	-1312.000000	1307.596680	5451.131836
150.000000	-1312.000000	1306.522461	5412.698242
150.000000	-1312.000000	1305.447266	5576.689453
150.000000	-1312.000000	1304.373047	5463.811523
150.000000	-1312.000000	1303.297852	5425.398926
150.000000	-1312.000000	1302.222656	5556.727051
150.000000	-1312.000000	1301.147461	5518.310059
150.000000	-1312.000000	1300.071289	5554.275879
150.000000	-1312.000000	1298.995117	5429.907227
150.000000	-1312.000000	1297.918945	5507.688477
150.000000	-1312.000000	1296.842773	5578.467773
150.000000	-1312.000000	1295.765625	5505.256348
150.000000	-1312.000000	1294.689453	5666.538086
150.000000	-1312.000000	1293.611328	5579.413086
150.000000	-1312.000000	1292.534180	5515.529297
150.000000	-1312.000000	1291.457031	5435.434570
150.000000	-1312.000000	1290.378906	5513.090332
150.000000	-1312.000000	1289.300781	5616.218262
150.000000	-1312.000000	1288.222656	5693.798340
150.000000	-1312.000000	1287.143555	5657.770508
150.000000	-1312.000000	1286.064453	5614.806641
150.000000	-1312.000000	1284.985352	5796.588379
150.000000	-1312.000000	1283.906250	5714.234863
150.000000	-1312.000000	1282.827148	5819.493164
150.000000	-1312.000000	1281.747070	5771.897949
150.000000	-1312.000000	1280.666992	5842.374512
150.000000	-1312.000000	1279.586914	5841.078613
150.000000	-1312.000000	1278.505859	5832.841797
150.000000	-1312.000000	1277.425781	5736.706055
150.000000	-1312.000000	1276.344727	5837.190430
150.000000	-1312.000000	1275.263672	5956.126465
150.000000	-1312.000000	1274.181641	5866.960449
150.000000	-1312.000000	1273.099609	5863.345703
150.000000	-1312.000000	1272.018555	5908.254395
150.000000	-1312.000000	1270.935547	5909.250977
150.000000	-1312.000000	1269.853516	6000.320313
150.000000	-1312.000000	1268.770508	5978.203613
150.000000	-1312.000000	1267.687500	5976.873047
150.000000	-1312.000000	1266.604492	6035.551758
150.000000	-1312.000000	1265.521484	5891.140625
150.000000	-1312.000000	1264.437500	5922.126465
150.000000	-1312.000000	1263.353516	5969.243652
150.000000	-1312.000000	1262.269531	6060.152832
150.000000	-1312.000000	1261.185547	6012.691895
150.000000	-1312.000000	1260.100586	6096.634766
150.000000	-1312.000000	1259.015625	6028.445801
150.000000	-1312.000000	1257.930664	6114.649902
150.000000	-1312.000000	1256.845703	6173.173828
150.000000	-1312.000000	1255.759766	6008.288574
150.000000	-1312.000000	1254.673828	6124.368652
150.000000	-1312.000000	1253.587891	6251.905273
150.000000	-1312.000000	1252.501953	6087.110840
150.000000	-1312.000000	1251.415039	6209.996094
150.000000	-1312.000000	1250.328125	6236.210938
150.000000	-1312.000000	1249.241211	6186.519531
150.000000	-1312.000000	1248.154297	6208.127930
150.000000	-1312.000000	1247.066406	6271.104492
150.000000	-1312.000000	1245.978516	6329.455078
150.000000	-1312.000000	1244.890625	6259.104492
150.000000	-1312.000000	1243.802734	6278.376953
150.000000	-1312.000000	1242.713867	6217.254395
150.000000	-1312.000000	1241.625000	6401.854004
150.000000	-1312.000000	1240.536133	6131.820801
150.000000	-1312.000000	1239.447266	6194.710449
150.000000	-1312.000000	1238.357422	6025.808594
150.000000	-1312.000000	1237.267578	6219.458984
150.000000	-1312.000000	1236.177734	6206.593750
150.000000	-1312.000000	1235.087891	5957.541992
150.000000	-1312.000000	1233.997070	6155.660156
150.000000	-1312.000000	1232.906250	6041.963379
150.000000	-1312.000000	1231.815430	6157.475098
150.000000	-1312.000000	1230.724609	5892.617676
150.000000	-1312.000000	1229.632813	6017.271484
150.000000	-1312.000000	1228.541016	5979.276367
150.000000	-1312.000000	1227.449219	5897.796875
150.000000	-1312.000000	1226.356445	5871.289063
150.000000	-1312.000000	1225.264648	5902.004883
150.000000	-1312.000000	1224.171875	5825.171387
150.000000	-1312.000000	1223.079102	5849.020020
150.000000	-1312.000000	1221.985352	5653.310547
150.000000	-1312.000000	1220.892578	5713.768555
150.000000	-1312.000000	1219.798828	5785.627930
150.000000	-1312.000000	1218.705078	5718.044922
150.000000	-1312.000000	1217.610352	5572.806152
150.000000	-1312.000000	1216.516602	5516.722656
150.000000	-1312.000000	1215.421875	5741.575684
150.000000	-1312.000000	1214.326172	5817.910645
150.000000	-1312.000000	1213.231445	5732.130859
150.000000	-1312.000000	1212.135742	5817.561035
150.000000	-1312.000000	1211.040039	5720.409668
150.000000	-1312.000000	1209.944336	5771.583008
150.000000	-1312.000000	1208.848633	5795.364258
150.000000	-1312.000000	1207.751953	5825.974121
150.000000	-1312.000000	1206.655273	5717.507324
150.000000	-1312.000000	1205.558594	5768.632324
150.000000	-1312.000000	1204.461914	5744.537109
150.000000	-1312.000000	1203.364258	5761.458984
150.000000	-1312.000000	1202.266602	5792.038086
150.000000	-1312.000000	1201.168945	5708.746582
150.000000	-1312.000000	1200.070313	5828.109863
150.000000	-1312.000000	1198.971680	5740.294434
150.000000	-1312.000000	1197.873047	5743.540527
150.000000	-1312.000000	1196.774414	5780.910645
150.000000	-1312.000000	1195.675781	5729.556152
150.000000	-1312.000000	1194.576172	5814.665039
150.000000	-1312.000000	1193.476563	5813.341309
150.000000	-1312.000000	1192.376953	5689.276367
150.000000	-1312.000000	1191.276367	5683.435547
150.000000	-1312.000000	1190.175781	5607.166504
150.000000	-1312.000000	1189.075195	5767.159668
150.000000	-1312.000000	1187.974609	5797.637207
150.000000	-1312.000000	1186.873047	5893.941895
150.000000	-1312.000000	1185.772461	5835.849609
150.000000	-1312.000000	1184.669922	5789.130371
150.000000	-1312.000000	1183.568359	5821.840820
150.000000	-1312.000000	1182.466797	5931.658691
150.000000	-1312.000000	1181.364258	5943.910156
150.000000	-1312.000000	1180.261719	5831.454102
150.000000	-1312.000000	1179.158203	5830.120605
150.000000	-1312.000000	1178.055664	5821.987793
150.000000	-1312.000000	1176.952148	5745.886719
150.000000	-1312.000000	1175.848633	5826.118652
150.000000	-1312.000000	1174.744141	5772.696289
150.000000	-1312.000000	1173.640625	5927.601563
150.000000	-1312.000000	1172.536133	5867.387695
150.000000	-1312.000000	1171.430664	5879.621094
150.000000	-1312.000000	1170.326172	5749.303711
150.000000	-1312.000000	1169.220703	5818.109375
150.000000	-1312.000000	1168.115234	6002.223145
150.000000	-1312.000000	1167.009766	5944.318359
150.000000	-1312.000000	1165.904297	5954.255371
150.000000	-1312.000000	1164.797852	5889.606445
150.000000	-1312.000000	1163.691406	5910.847656
150.000000	-1312.000000	1162.584961	5990.811523
150.000000	-1312.000000	1161.477539	6063.962402
150.000000	-1312.000000	1160.370117	6080.630371
150.000000	-1312.000000	1159.262695	5968.616699
150.000000	-1312.000000	1158.155273	6043.976563
150.000000	-1312.000000	1157.047852	6121.557129
150.000000	-1312.000000	1155.939453	5932.909668
150.000000	-1312.000000	1154.831055	6028.520996
150.000000	-1312.000000	1153.721680	5878.312500
150.000000	-1312.000000	1152.613281	6037.011230
150.000000	-1312.000000	1151.503906	6004.064453
150.000000	-1312.000000	1150.394531	5901.281250
150.000000	-1312.000000	1149.284180	5875.137695
150.000000	-1312.000000	1148.174805	5867.023438
150.000000	-1312.000000	1147.064453	5953.482910
150.000000	-1312.000000	1145.953125	5886.821777
150.000000	-1312.000000	1144.842773	6018.248047
150.000000	-1312.000000	1143.731445	5893.097656
150.000000	-1312.000000	1142.620117	6094.198242
150.000000	-1312.000000	1141.508789	5993.826172
150.000000	-1312.000000	1140.397461	6093.622559
150.000000	-1312.000000	1139.285156	6020.272461
150.000000	-1312.000000	1138.172852	5935.717773
150.000000	-1312.000000	1137.060547	5932.093262
150.000000	-1312.000000	1135.947266	5946.441895
150.000000	-1312.000000	1134.833984	6014.685547
150.000000	-1312.000000	1133.720703	5901.016602
150.000000	-1312.000000	1132.607422	6018.625977
150.000000	-1312.000000	1131.493164	6035.181641
150.000000	-1312.000000	1130.378906	5876.707031
150.000000	-1312.000000	1129.264648	5929.179688
150.000000	-1312.000000	1128.150391	6019.755859
150.000000	-1312.000000	1127.035156	6083.380859
150.000000	-1312.000000	1125.919922	6088.689453
150.000000	-1312.000000	1124.804688	6206.057129
150.000000	-1312.000000	1123.688477	6137.388184
150.000000	-1312.000000	1122.573242	6147.157715
150.000000	-1312.000000	1121.457031	6103.169434
150.000000	-1312.000000	1120.339844	6018.895508
150.000000	-1312.000000	1119.223633	6129.422363
150.000000	-1312.000000	1118.106445	6087.704102
150.000000	-1312.000000	1116.989258	6151.171875
150.000000	-1312.000000	1115.871094	6055.776367
150.000000	-1312.000000	1114.753906	6096.854492
150.000000	-1312.000000	1113.635742	6115.552246
150.000000	-1312.000000	1112.517578	6047.055176
150.000000	-1312.000000	1111.398438	6197.618164
150.000000	-1312.000000	1110.280273	6200.635254
150.000000	-1312.000000	1109.161133	6214.819824
150.000000	-1312.000000	1108.041992	6237.930176
150.000000	-1312.000000	1106.921875	6080.164551
150.000000	-1312.000000	1105.801758	6496.190430
150.000000	-1312.000000	1104.681641	6284.872070
150.000000	-1312.000000	1103.561523	6392.730469
150.000000	-1312.000000	1102.440430	6384.536133
150.000000	-1312.000000	1101.320313	6405.338379
150.000000	-1312.000000	1100.198242	6562.144043
150.000000	-1312.000000	1099.077148	6625.248047
150.000000	-1312.000000	1097.955078	6599.172852
150.000000	-1312.000000	1096.833008	6573.109375
150.000000	-1312.000000	1095.710938	6580.471680
150.000000	-1312.000000	1094.588867	6583.375488
150.000000	-1312.000000	1093.465820	6519.479004
150.000000	-1312.000000	1092.342773	6622.566895
150.000000	-1312.000000	1091.219727	6641.034180
150.000000	-1312.000000	1090.095703	6744.042480
150.000000	-1312.000000	1088.971680	6847.001465
150.000000	-1312.000000	1087.847656	6896.535645
150.000000	-1312.000000	1086.723633	6823.755371
150.000000	-1312.000000	1085.598633	6975.523438
150.000000	-1312.000000	1084.473633	7004.986816
150.000000	-1312.000000	1083.348633	7205.519531
150.000000	-1312.000000	1082.223633	7381.520996
150.000000	-1312.000000	1081.097656	7326.473145
150.000000	-1312.000000	1079.971680	7404.667969
150.000000	-1312.000000	1078.845703	7600.471680
150.000000	-1312.000000	1077.718750	7600.888672
150.000000	-1312.000000	1076.591797	7836.487305
150.000000	-1312.000000	1075.464844	7763.645508
150.000000	-1312.000000	1074.337891	7919.255859
150.000000	-1312.000000	1073.209961	7912.940430
150.000000	-1312.000000	1072.082031	8079.521973
150.000000	-1312.000000	1070.954102	7969.013184
150.000000	-1312.000000	1069.826172	8026.937988
150.000000	-1312.000000	1068.697266	7876.621094
150.000000	-1312.000000	1067.568359	7914.607422
150.000000	-1312.000000	1066.439453	7813.093750
150.000000	-1312.000000	1065.309570	7877.635254
150.000000	-1312.000000	1064.179688	7674.382324
150.000000	-1312.000000	1063.049805	7572.995117
150.000000	-1312.000000	1061.919922	7387.604492
150.000000	-1312.000000	1060.789063	7244.315918
150.000000	-1312.000000	1059.658203	7308.910156
150.000000	-1312.000000	1058.527344	7247.486816
150.000000	-1312.000000	1057.395508	7267.852051
150.000000	-1312.000000	1056.264648	7104.841797
150.000000	-1312.000000	1055.131836	7058.968750
150.000000	-1312.000000	1054.000000	7059.487305
150.000000	-1312.000000	1052.868164	6956.246094
150.000000	-1312.000000	1051.735352	7047.278320
150.000000	-1312.000000	1050.601563	6974.979492
150.000000	-1312.000000	1049.468750	7085.815918
150.000000	-1312.000000	1048.334961	7046.622559
150.000000	-1312.000000	1047.201172	6987.602051
150.000000	-1312.000000	1046.067383	7100.556641
150.000000	-1312.000000	1044.932617	6995.267090
150.000000	-1312.000000	1043.798828	7121.383301
150.000000	-1312.000000	1042.663086	7106.454590
150.000000	-1312.000000	1041.528320	7124.566406
150.000000	-1312.000000	1040.392578	7259.364746
150.000000	-1312.000000	1039.256836	7314.851074
150.000000	-1312.000000	1038.121094	7247.066895
150.000000	-1312.000000	1036.985352	7317.928711
150.000000	-1312.000000	1035.848633	7388.754395
150.000000	-1312.000000	1034.711914	7540.914063
150.000000	-1312.000000	1033.574219	7534.697754
150.000000	-1312.000000	1032.437500	7383.408691
150.000000	-1312.000000	1031.299805	7469.528809
150.000000	-1312.000000	1030.162109	7432.572266
150.000000	-1312.000000	1029.023438	7514.243164
150.000000	-1312.000000	1027.884766	7268.673340
150.000000	-1312.000000	1026.746094	7332.778809
150.000000	-1312.000000	1025.607422	7177.360352
150.000000	-1312.000000	1024.467773	7324.840820
150.000000	-1312.000000	1023.329102	7211.180176
150.000000	-1312.000000	1022.188477	7268.652344
150.000000	-1312.000000	1021.048828	7334.866699
150.000000	-1312.000000	1019.908203	7041.518066
150.000000	-1312.000000	1018.767578	7153.778809
150.000000	-1312.000000	1017.626953	7044.674316
150.000000	-1312.000000	1016.485352	7115.254883
150.000000	-1312.000000	1015.343750	7045.632324
150.000000	-1312.000000	1014.202148	7054.867676
150.000000	-1312.000000	1013.060547	6950.266113
150.000000	-1312.000000	1011.917969	7036.115723
150.000000	-1312.000000	1010.775391	7034.403320
150.000000	-1312.000000	1009.632813	7085.188965
150.000000	-1312.000000	1008.489258	7096.584473
150.000000	-1312.000000	1007.345703	7147.328125
150.000000	-1312.000000	1006.202148	7263.621582
150.000000	-1312.000000	1005.058594	7515.347656
150.000000	-1312.000000	1003.914063	7954.841797
150.000000	-1312.000000	1002.769531	8195.352539
150.000000	-1312.000000	1001.624023	8280.699219
150.000000	-1312.000000	1000.479492	8012.325684
150.000000	-1312.000000	999.333984	7763.725586
150.000000	-1312.000000	998.188477	7362.496582
150.000000	-1312.000000	997.041992	7343.241699
150.000000	-1312.000000	995.896484	7269.468750
150.000000	-1312.000000	994.750000	7265.506836
150.000000	-1312.000000	993.602539	7148.186523
150.000000	-1312.000000	992.456055	7146.433594
150.000000	-1312.000000	991.308594	7059.702637
150.000000	-1312.000000	990.161133	7190.851074
150.000000	-1312.000000	989.012695	7145.528320
150.000000	-1312.000000	987.864258	7217.801270
150.000000	-1312.000000	986.715820	7211.673340
150.000000	-1312.000000	985.567383	7296.949707
150.000000	-1312.000000	984.417969	7255.991699
150.000000	-1312.000000	983.268555	7234.628906
150.000000	-1312.000000	982.119141	7330.706055
150.000000	-1312.000000	980.969727	7463.694336
150.000000	-1312.000000	979.819336	7509.672852
150.000000	-1312.000000	978.668945	7546.935547
150.000000	-1312.000000	977.517578	7890.500000
150.000000	-1312.000000	976.367188	8131.811523
150.000000	-1312.000000	975.215820	8388.202148
150.000000	-1312.000000	974.064453	8672.686523
150.000000	-1312.000000	972.912109	8930.984375
150.000000	-1312.000000	971.759766	9679.530273
150.000000	-1312.000000	970.607422	10063.266602
150.000000	-1312.000000	969.455078	10871.882813
150.000000	-1312.000000	968.301758	11671.424805
150.000000	-1312.000000	967.148438	12680.832031
150.000000	-1312.000000	965.995117	13559.708008
150.000000	-1312.000000	964.840820	15088.123047
150.000000	-1312.000000	963.686523	15913.976563
150.000000	-1312.000000	962.532227	16836.865234
150.000000	-1312.000000	961.377930	17651.044922
150.000000	-1312.000000	960.222656	18021.105469
150.000000	-1312.000000	959.067383	18194.064453
150.000000	-1312.000000	957.912109	18094.351563
150.000000	-1312.000000	956.755859	17518.863281
150.000000	-1312.000000	955.599609	16813.921875
150.000000	-1312.000000	954.443359	15936.387695
150.000000	-1312.000000	953.286133	14864.779297
150.000000	-1312.000000	952.128906	14044.340820
150.000000	-1312.000000	950.971680	13496.484375
150.000000	-1312.000000	949.814453	12523.459961
150.000000	-1312.000000	948.656250	11939.548828
150.000000	-1312.000000	947.498047	11260.952148
150.000000	-1312.000000	946.339844	10878.333984
150.000000	-1312.000000	945.180664	10297.421875
150.000000	-1312.000000	944.021484	10033.862305
150.000000	-1312.000000	942.862305	9645.363281
150.000000	-1312.000000	941.703125	9468.327148
150.000000	-1312.000000	940.542969	9243.961914
150.000000	-1312.000000	939.382813	8929.208008
150.000000	-1312.000000	938.221680	8573.681641
150.000000	-1312.000000	937.061523	8403.544922
150.000000	-1312.000000	935.900391	8341.148438
150.000000	-1312.000000	934.739258	8257.255859
150.000000	-1312.000000	933.577148	8037.826172
150.000000	-1312.000000	932.415039	7827.110840
150.000000	-1312.000000	931.252930	7762.764648
150.000000	-1312.000000	930.089844	7633.937012
150.000000	-1312.000000	928.927734	7483.674316
150.000000	-1312.000000	927.764648	7438.802734
150.000000	-1312.000000	926.600586	7464.862305
150.000000	-1312.000000	925.437500	7447.942383
150.000000	-1312.000000	924.273438	7403.109375
150.000000	-1312.000000	923.108398	7263.822754
150.000000	-1312.000000	921.944336	7395.078613
150.000000	-1312.000000	920.779297	7212.940430
150.000000	-1312.000000	919.614258	7286.210449
150.000000	-1312.000000	918.448242	7247.902832
150.000000	-1312.000000	917.282227	7070.224609
150.000000	-1312.000000	916.116211	7072.722656
150.000000	-1312.000000	914.950195	7053.784668
150.000000	-1312.000000	913.783203	7150.566406
150.000000	-1312.000000	912.616211	7133.757813
150.000000	-1312.000000	911.449219	7251.884766
150.000000	-1312.000000	910.281250	7102.302734
150.000000	-1312.000000	909.113281	7181.843750
150.000000	-1312.000000	907.945313	7160.758301
150.000000	-1312.000000	906.777344	6921.448242
150.000000	-1312.000000	905.608398	6983.858398
150.000000	-1312.000000	904.439453	7110.389160
150.000000	-1312.000000	903.269531	7027.338379
150.000000	-1312.000000	902.100586	6961.427734
150.000000	-1312.000000	900.930664	6959.653809
150.000000	-1312.000000	899.759766	6998.468750
150.000000	-1312.000000	898.589844	7069.299316
150.000000	-1312.000000	897.418945	7026.926270
150.000000	-1312.000000	896.247070	7014.458984
150.000000	-1312.000000	895.076172	7044.679199
150.000000	-1312.000000	893.904297	6934.066895
150.000000	-1312.000000	892.732422	7006.949707
150.000000	-1312.000000	891.559570	6924.123047
150.000000	-1312.000000	890.386719	6903.163574
150.000000	-1312.000000	889.213867	6995.176270
150.000000	-1312.000000	888.041016	7085.009766
150.000000	-1312.000000	886.867188	7151.362793
150.000000	-1312.000000	885.693359	7053.690430
150.000000	-1312.000000	884.519531	7096.593750
150.000000	-1312.000000	883.344727	7113.929199
150.000000	-1312.000000	882.169922	7182.329590
150.000000	-1312.000000	880.995117	7193.249023
150.000000	-1312.000000	879.819336	7168.002441
150.000000	-1312.000000	878.644531	7044.950195
150.000000	-1312.000000	877.467773	7075.025879
150.000000	-1312.000000	876.291992	7183.722656
150.000000	-1312.000000	875.115234	7241.366699
150.000000	-1312.000000	873.938477	7260.742676
150.000000	-1312.000000	872.760742	7248.251465
150.000000	-1312.000000	871.583984	7082.896973
150.000000	-1312.000000	870.406250	7219.039063
150.000000	-1312.000000	869.227539	6996.478516
150.000000	-1312.000000	868.049805	7230.159668
150.000000	-1312.000000	866.871094	7200.717773
150.000000	-1312.000000	865.691406	7203.095703
150.000000	-1312.000000	864.512695	7069.798828
150.000000	-1312.000000	863.333008	7057.371582
150.000000	-1312.000000	862.153320	7299.202637
150.000000	-1312.000000	860.972656	7206.226563
150.000000	-1312.000000	859.791992	7263.652832
150.000000	-1312.000000	858.611328	7130.505859
150.000000	-1312.000000	857.429688	7475.774414
150.000000	-1312.000000	856.249023	7412.467285
150.000000	-1312.000000	855.067383	7351.307617
150.000000	-1312.000000	853.884766	7275.373047
150.000000	-1312.000000	852.702148	7245.993652
150.000000	-1312.000000	851.519531	7379.392578
150.000000	-1312.000000	850.336914	7381.697754
150.000000	-1312.000000	849.153320	7333.293945
150.000000	-1312.000000	847.969727	7335.606934
150.000000	-1312.000000	846.786133	7264.009766
150.000000	-1312.000000	845.601563	7194.559570
150.000000	-1312.000000	844.416992	7101.928223
150.000000	-1312.000000	843.232422	7167.592285
150.000000	-1312.000000	842.046875	7201.579102
150.000000	-1312.000000	840.861328	7022.550293
150.000000	-1312.000000	839.675781	7117.695801
150.000000	-1312.000000	838.490234	7254.945313
150.000000	-1312.000000	837.303711	7198.257813
150.000000	-1312.000000	836.117188	7088.931641
150.000000	-1312.000000	834.929688	7188.166504
150.000000	-1312.000000	833.742188	7123.113770
150.000000	-1312.000000	832.554688	7239.125000
150.000000	-1312.000000	831.367188	7205.657227
150.000000	-1312.000000	830.178711	7159.582031
150.000000	-1312.000000	828.990234	7100.909668
150.000000	-1312.000000	827.800781	7115.864746
150.000000	-1312.000000	826.612305	7036.208984
150.000000	-1312.000000	825.421875	7013.339844
150.000000	-1312.000000	824.232422	6868.615234
150.000000	-1312.000000	823.041992	7070.561523
150.000000	-1312.000000	821.851563	7028.796387
150.000000	-1312.000000	820.661133	7110.921387
150.000000	-1312.000000	819.469727	7083.856934
150.000000	-1312.000000	818.278320	7100.871582
150.000000	-1312.000000	817.086914	7216.472656
150.000000	-1312.000000	815.894531	7174.717285
150.000000	-1312.000000	814.702148	7411.843262
150.000000	-1312.000000	813.509766	7504.208496
150.000000	-1312.000000	812.316406	7621.669922
150.000000	-1312.000000	811.124023	7770.493652
150.000000	-1312.000000	809.929688	7571.552734
150.000000	-1312.000000	808.736328	7663.771484
150.000000	-1312.000000	807.541992	7433.560547
150.000000	-1312.000000	806.347656	7096.736328
150.000000	-1312.000000	805.152344	7078.113281
150.000000	-1312.000000	803.957031	7113.882813
150.000000	-1312.000000	802.761719	6798.319336
150.000000	-1312.000000	801.565430	6903.130371
150.000000	-1312.000000	800.370117	6840.682129
150.000000	-1312.000000	799.172852	6617.375488
150.000000	-1312.000000	797.976563	6747.214355
150.000000	-1312.000000	796.779297	6718.266602
150.000000	-1312.000000	795.582031	6572.416016
150.000000	-1312.000000	794.383789	6739.729004
150.000000	-1312.000000	793.186523	6698.282227
150.000000	-1312.000000	791.987305	6700.665039
150.000000	-1312.000000	790.789063	6648.819824
150.000000	-1312.000000	789.589844	6619.936523
150.000000	-1312.000000	788.390625	6707.796875
150.000000	-1312.000000	787.190430	6741.427246
150.000000	-1312.000000	785.991211	6779.205078
150.000000	-1312.000000	784.791016	6556.612793
150.000000	-1312.000000	783.589844	6627.732422
150.000000	-1312.000000	782.388672	6755.017578
150.000000	-1312.000000	781.187500	6801.069824
150.000000	-1312.000000	779.986328	6759.712891
150.000000	-1312.000000	778.784180	6814.056152
150.000000	-1312.000000	777.582031	6760.238281
150.000000	-1312.000000	776.378906	6683.580078
150.000000	-1312.000000	775.176758	6675.546387
150.000000	-1312.000000	773.973633	6744.392090
150.000000	-1312.000000	772.769531	6655.332520
150.000000	-1312.000000	771.565430	6605.775879
150.000000	-1312.000000	770.361328	6724.406250
150.000000	-1312.000000	769.157227	6747.498047
150.000000	-1312.000000	767.952148	6700.026855
150.000000	-1312.000000	766.747070	6654.654785
150.000000	-1312.000000	765.541992	6528.425781
150.000000	-1312.000000	764.335938	6686.302246
150.000000	-1312.000000	763.129883	6802.637207
150.000000	-1312.000000	761.922852	6703.404785
150.000000	-1312.000000	760.716797	6660.157227
150.000000	-1312.000000	759.508789	6718.411621
150.000000	-1312.000000	758.301758	6741.435547
150.000000	-1312.000000	757.093750	6774.794922
150.000000	-1312.000000	755.885742	6754.331543
150.000000	-1312.000000	754.677734	6686.295898
150.000000	-1312.000000	753.468750	6585.204590
150.000000	-1312.000000	752.259766	6697.135254
150.000000	-1312.000000	751.049805	6616.763672
150.000000	-1312.000000	749.840820	6600.497070
150.000000	-1312.000000	748.629883	6544.984375
150.000000	-1312.000000	747.419922	6555.593262
150.000000	-1312.000000	746.208984	6588.908203
150.000000	-1312.000000	744.998047	6566.468262
150.000000	-1312.000000	743.786133	6659.606934
150.000000	-1312.000000	742.575195	6610.335938
150.000000	-1312.000000	741.363281	6738.472656
150.000000	-1312.000000	740.150391	6674.770020
150.000000	-1312.000000	738.937500	6586.363281
150.000000	-1312.000000	737.724609	6588.682617
150.000000	-1312.000000	736.510742	6654.869629
150.000000	-1312.000000	735.297852	6688.062500
150.000000	-1312.000000	734.083008	6653.281738
150.000000	-1312.000000	732.869141	6536.173828
150.000000	-1312.000000	731.654297	6581.715820
150.000000	-1312.000000	730.439453	6651.921387
150.000000	-1312.000000	729.223633	6633.638672
150.000000	-1312.000000	728.007813	6555.729492
150.000000	-1312.000000	726.791992	6492.252441
150.000000	-1312.000000	725.575195	6465.803223
150.000000	-1312.000000	724.359375	6634.562012
275.000000	-1312.000000	1819.744141	2667.475098
275.000000	-1312.000000	1818.779297	2737.467041
275.000000	-1312.000000	1817.815430	2767.968994
275.000000	-1312.000000	1816.850586	2746.634277
275.000000	-1312.000000	1815.884766	2691.631348
275.000000	-1312.000000	1814.919922	2711.763184
275.000000	-1312.000000	1813.954102	2783.675781
275.000000	-1312.000000	1812.989258	2777.889648
275.000000	-1312.000000	1812.023438	2743.634766
275.000000	-1312.000000	1811.056641	2758.562256
275.000000	-1312.000000	1810.090820	2719.151855
275.000000	-1312.000000	1809.124023	2788.397705
275.000000	-1312.000000	1808.157227	2661.071777
275.000000	-1312.000000	1807.190430	2655.320313
275.000000	-1312.000000	1806.223633	2791.743408
275.000000	-1312.000000	1805.255859	2744.615723
275.000000	-1312.000000	1804.288086	2831.867432
275.000000	-1312.000000	1803.320313	2696.920898
275.000000	-1312.000000	1802.352539	2812.554688
275.000000	-1312.000000	1801.384766	2760.299561
275.000000	-1312.000000	1800.416016	2785.514160
275.000000	-1312.000000	1799.447266	2761.678711
275.000000	-1312.000000	1798.478516	2732.692627
275.000000	-1312.000000	1797.509766	2855.932373
275.000000	-1312.000000	1796.540039	2865.628418
275.000000	-1312.000000	1795.571289	2756.697266
275.000000	-1312.000000	1794.601563	2846.334961
275.000000	-1312.000000	1793.631836	2930.778320
275.000000	-1312.000000	1792.661133	2811.595459
275.000000	-1312.000000	1791.691406	2901.162842
275.000000	-1312.000000	1790.720703	2818.101807
275.000000	-1312.000000	1789.750000	2817.489746
275.000000	-1312.000000	1788.779297	2860.650391
275.000000	-1312.000000	1787.807617	2839.435059
275.000000	-1312.000000	1786.835938	2777.049316
275.000000	-1312.000000	1785.865234	2845.922363
275.000000	-1312.000000	1784.892578	2791.280029
275.000000	-1312.000000	1783.920898	2919.277344
275.000000	-1312.000000	1782.949219	2900.643799
275.000000	-1312.000000	1781.976563	2822.886963
275.000000	-1312.000000	1781.003906	2814.563965
275.000000	-1312.000000	1780.031250	2855.071045
275.000000	-1312.000000	1779.057617	2895.560791
275.000000	-1312.000000	1778.084961	2925.758057
275.000000	-1312.000000	1777.111328	2863.489014
275.000000	-1312.000000	1776.137695	2996.384033
275.000000	-1312.000000	1775.164063	2964.930908
275.000000	-1312.000000	1774.189453	2869.329346
275.000000	-1312.000000	1773.214844	2930.290771
275.000000	-1312.000000	1772.240234	2875.783936
275.000000	-1312.000000	1771.265625	2985.449219
275.000000	-1312.000000	1770.291016	2869.411865
275.000000	-1312.000000	1769.315430	2991.849609
275.000000	-1312.000000	1768.340820	3006.581787
275.000000	-1312.000000	1767.365234	3085.372803
275.000000	-1312.000000	1766.389648	3025.779053
275.000000	-1312.000000	1765.413086	2950.842041
275.000000	-1312.000000	1764.436523	2901.546875
275.000000	-1312.000000	1763.460938	2862.514648
275.000000	-1312.000000	1762.484375	2902.854004
275.000000	-1312.000000	1761.506836	2868.956787
275.000000	-1312.000000	1760.530273	2970.687012
275.000000	-1312.000000	1759.552734	3021.209717
275.000000	-1312.000000	1758.575195	3076.825684
275.000000	-1312.000000	1757.597656	2999.449951
275.000000	-1312.000000	1756.620117	3037.150879
275.000000	-1312.000000	1755.641602	3059.500000
275.000000	-1312.000000	1754.663086	3012.843018
275.000000	-1312.000000	1753.684570	2994.309570
275.000000	-1312.000000	1752.706055	2986.001465
275.000000	-1312.000000	1751.727539	3010.895996
275.000000	-1312.000000	1750.748047	2954.076660
275.000000	-1312.000000	1749.768555	3001.941162
275.000000	-1312.000000	1748.789063	3001.294922
275.000000	-1312.000000	1747.809570	2998.097168
275.000000	-1312.000000	1746.829102	3076.533691
275.000000	-1312.000000	1745.848633	3058.018311
275.000000	-1312.000000	1744.868164	3123.658691
275.000000	-1312.000000	1743.887695	3064.351074
275.000000	-1312.000000	1742.907227	3038.203613
275.000000	-1312.000000	1741.925781	3205.736816
275.000000	-1312.000000	1740.945313	3113.329346
275.000000	-1312.000000	1739.962891	3038.791748
275.000000	-1312.000000	1738.981445	3140.004150
275.000000	-1312.000000	1738.000000	3052.762451
275.000000	-1312.000000	1737.017578	3118.290771
275.000000	-1312.000000	1736.035156	3125.255859
275.000000	-1312.000000	1735.052734	3279.796143
275.000000	-1312.000000	1734.070313	3184.967285
275.000000	-1312.000000	1733.086914	3235.150879
275.000000	-1312.000000	1732.103516	3280.226807
275.000000	-1312.000000	1731.120117	3236.304443
275.000000	-1312.000000	1730.136719	3281.360840
275.000000	-1312.000000	1729.153320	3247.621582
275.000000	-1312.000000	1728.168945	3325.684326
275.000000	-1312.000000	1727.184570	3388.473145
275.000000	-1312.000000	1726.200195	3372.509277
275.000000	-1312.000000	1725.215820	3333.701172
275.000000	-1312.000000	1724.231445	3383.755615
275.000000	-1312.000000	1723.246094	3441.402100
275.000000	-1312.000000	1722.260742	3501.561279
275.000000	-1312.000000	1721.275391	3503.347900
275.000000	-1312.000000	1720.289063	3426.509033
275.000000	-1312.000000	1719.303711	3479.025391
275.000000	-1312.000000	1718.317383	3379.407715
275.000000	-1312.000000	1717.331055	3419.238525
275.000000	-1312.000000	1716.344727	3461.586182
275.000000	-1312.000000	1715.357422	3448.177246
275.000000	-1312.000000	1714.371094	3470.236328
275.000000	-1312.000000	1713.383789	3487.220947
275.000000	-1312.000000	1712.396484	3471.282959
275.000000	-1312.000000	1711.409180	3432.569336
275.000000	-1312.000000	1710.420898	3487.513672
275.000000	-1312.000000	1709.432617	3456.404053
275.000000	-1312.000000	1708.444336	3498.670898
275.000000	-1312.000000	1707.456055	3454.925781
275.000000	-1312.000000	1706.467773	3550.277100
275.000000	-1312.000000	1705.478516	3511.595947
275.000000	-1312.000000	1704.489258	3584.145752
275.000000	-1312.000000	1703.500000	3573.271484
275.000000	-1312.000000	1702.510742	3797.368652
275.000000	-1312.000000	1701.521484	3665.206055
275.000000	-1312.000000	1700.531250	3833.627930
275.000000	-1312.000000	1699.541016	3645.965820
275.000000	-1312.000000	1698.550781	3766.356689
275.000000	-1312.000000	1697.560547	3720.123535
275.000000	-1312.000000	1696.569336	3772.318115
275.000000	-1312.000000	1695.578125	3721.057617
275.000000	-1312.000000	1694.586914	3826.196289
275.000000	-1312.000000	1693.595703	3921.203125
275.000000	-1312.000000	1692.604492	3988.436768
275.000000	-1312.000000	1691.612305	3959.859131
275.000000	-1312.000000	1690.620117	3926.253418
275.000000	-1312.000000	1689.627930	3988.403564
275.000000	-1312.000000	1688.635742	4053.046387
275.000000	-1312.000000	1687.642578	4069.811035
275.000000	-1312.000000	1686.650391	4149.516113
275.000000	-1312.000000	1685.657227	4100.801270
275.000000	-1312.000000	1684.664063	4049.589844
275.000000	-1312.000000	1683.669922	4088.987305
275.000000	-1312.000000	1682.676758	4286.860840
275.000000	-1312.000000	1681.682617	4215.520508
275.000000	-1312.000000	1680.688477	4317.724609
275.000000	-1312.000000	1679.694336	4213.723633
275.000000	-1312.000000	1678.699219	4197.744141
275.000000	-1312.000000	1677.704102	4372.765625
275.000000	-1312.000000	1676.709961	4226.105957
275.000000	-1312.000000	1675.713867	4383.462891
275.000000	-1312.000000	1674.718750	4369.971680
275.000000	-1312.000000	1673.723633	4451.901855
275.000000	-1312.000000	1672.727539	4420.829102
275.000000	-1312.000000	1671.731445	4387.259277
275.000000	-1312.000000	1670.735352	4396.362305
275.000000	-1312.000000	1669.738281	4350.267578
275.000000	-1312.000000	1668.742188	4384.457520
275.000000	-1312.000000	1667.745117	4363.462402
275.000000	-1312.000000	1666.748047	4440.256836
275.000000	-1312.000000	1665.750000	4394.191895
275.000000	-1312.000000	1664.752930	4182.741211
275.000000	-1312.000000	1663.754883	4241.985352
275.000000	-1312.000000	1662.756836	4306.214844
275.000000	-1312.000000	1661.758789	4257.712402
275.000000	-1312.000000	1660.760742	4196.710449
275.000000	-1312.000000	1659.761719	4268.418457
275.000000	-1312.000000	1658.762695	4277.522461
275.000000	-1312.000000	1657.763672	4126.468262
275.000000	-1312.000000	1656.764648	4160.616699
275.000000	-1312.000000	1655.765625	4279.796387
275.000000	-1312.000000	1654.765625	4198.860352
275.000000	-1312.000000	1653.765625	4222.970703
275.000000	-1312.000000	1652.765625	4239.570801
275.000000	-1312.000000	1651.765625	4056.226807
275.000000	-1312.000000	1650.764648	4210.283203
275.000000	-1312.000000	1649.764648	4226.875000
275.000000	-1312.000000	1648.763672	4228.474609
275.000000	-1312.000000	1647.761719	4275.020508
275.000000	-1312.000000	1646.760742	4206.705078
275.000000	-1312.000000	1645.758789	4260.723633
275.000000	-1312.000000	1644.756836	4249.836426
275.000000	-1312.000000	1643.754883	4316.297363
275.000000	-1312.000000	1642.752930	4417.652344
275.000000	-1312.000000	1641.750977	4496.519043
275.000000	-1312.000000	1640.748047	4570.365234
275.000000	-1312.000000	1639.745117	4449.737793
275.000000	-1312.000000	1638.742188	4481.192871
275.000000	-1312.000000	1637.738281	4477.749023
275.000000	-1312.000000	1636.735352	4606.343750
275.000000	-1312.000000	1635.731445	4488.301270
275.000000	-1312.000000	1634.727539	4397.700684
275.000000	-1312.000000	1633.723633	4289.710938
275.000000	-1312.000000	1632.718750	4298.756348
275.000000	-1312.000000	1631.714844	4103.731445
275.000000	-1312.000000	1630.709961	4127.741211
275.000000	-1312.000000	1629.705078	4109.451660
275.000000	-1312.000000	1628.699219	4165.781250
275.000000	-1312.000000	1627.694336	4038.085205
275.000000	-1312.000000	1626.688477	3989.994385
275.000000	-1312.000000	1625.682617	3954.351074
275.000000	-1312.000000	1624.676758	4005.695313
275.000000	-1312.000000	1623.669922	3890.562744
275.000000	-1312.000000	1622.664063	3917.059814
275.000000	-1312.000000	1621.657227	3970.861816
275.000000	-1312.000000	1620.650391	3965.053467
275.000000	-1312.000000	1619.642578	3832.650879
275.000000	-1312.000000	1618.635742	3923.662842
275.000000	-1312.000000	1617.627930	3833.505859
275.000000	-1312.000000	1616.620117	3956.727783
275.000000	-1312.000000	1615.612305	3834.359375
275.000000	-1312.000000	1614.604492	3940.170898
275.000000	-1312.000000	1613.595703	3907.106201
275.000000	-1312.000000	1612.586914	3893.884277
275.000000	-1312.000000	1611.578125	3796.413330
275.000000	-1312.000000	1610.569336	3939.305908
275.000000	-1312.000000	1609.559570	3854.251221
275.000000	-1312.000000	1608.550781	3878.198730
275.000000	-1312.000000	1607.541016	4001.174805
275.000000	-1312.000000	1606.530273	3879.028809
275.000000	-1312.000000	1605.520508	4093.524414
275.000000	-1312.000000	1604.509766	4129.771973
275.000000	-1312.000000	1603.500000	4074.470947
275.000000	-1312.000000	1602.489258	4123.073730
275.000000	-1312.000000	1601.477539	4055.432861
275.000000	-1312.000000	1600.466797	4061.989746
275.000000	-1312.000000	1599.455078	4048.769287
275.000000	-1312.000000	1598.443359	4062.738037
275.000000	-1312.000000	1597.431641	4027.286133
275.000000	-1312.000000	1596.419922	3853.517822
275.000000	-1312.000000	1595.407227	3907.033447
275.000000	-1312.000000	1594.394531	3861.760010
275.000000	-1312.000000	1593.381836	3809.099854
275.000000	-1312.000000	1592.369141	3791.015137
275.000000	-1312.000000	1591.356445	3938.266357
275.000000	-1312.000000	1590.342773	3888.089844
275.000000	-1312.000000	1589.329102	3983.460205
275.000000	-1312.000000	1588.315430	3827.256592
275.000000	-1312.000000	1587.301758	3885.616699
275.000000	-1312.000000	1586.287109	3786.193848
275.000000	-1312.000000	1585.272461	3940.651123
275.000000	-1312.000000	1584.257813	3860.969727
275.000000	-1312.000000	1583.243164	3798.565918
275.000000	-1312.000000	1582.228516	3802.686035
275.000000	-1312.000000	1581.212891	3811.729004
275.000000	-1312.000000	1580.197266	3835.539063
275.000000	-1312.000000	1579.181641	3881.490479
275.000000	-1312.000000	1578.166016	3952.030273
275.000000	-1312.000000	1577.149414	3909.367432
275.000000	-1312.000000	1576.133789	3883.940918
275.000000	-1312.000000	1575.117188	3750.318848
275.000000	-1312.000000	1574.099609	3842.954346
275.000000	-1312.000000	1573.083008	3761.019287
275.000000	-1312.000000	1572.065430	3944.546143
275.000000	-1312.000000	1571.047852	3756.966797
275.000000	-1312.000000	1570.030273	3859.347900
275.000000	-1312.000000	1569.012695	3865.897705
275.000000	-1312.000000	1567.995117	3882.266602
275.000000	-1312.000000	1566.976563	3834.797119
275.000000	-1312.000000	1565.958008	3900.256104
275.000000	-1312.000000	1564.939453	3921.514893
275.000000	-1312.000000	1563.919922	3910.869141
275.000000	-1312.000000	1562.901367	3868.338867
275.000000	-1312.000000	1561.881836	3813.564453
275.000000	-1312.000000	1560.862305	3876.505615
275.000000	-1312.000000	1559.841797	3745.758301
275.000000	-1312.000000	1558.822266	3869.959229
275.000000	-1312.000000	1557.801758	3854.435791
275.000000	-1312.000000	1556.781250	3848.718262
275.000000	-1312.000000	1555.760742	3977.716309
275.000000	-1312.000000	1554.740234	3947.486572
275.000000	-1312.000000	1553.718750	4002.959717
275.000000	-1312.000000	1552.697266	3906.647217
275.000000	-1312.000000	1551.675781	3915.607178
275.000000	-1312.000000	1550.654297	3912.329346
275.000000	-1312.000000	1549.631836	3960.423584
275.000000	-1312.000000	1548.609375	3984.039795
275.000000	-1312.000000	1547.587891	3919.619629
275.000000	-1312.000000	1546.564453	3877.228516
275.000000	-1312.000000	1545.541992	4018.165771
275.000000	-1312.000000	1544.518555	3936.673340
275.000000	-1312.000000	1543.495117	3884.532471
275.000000	-1312.000000	1542.471680	3891.035645
275.000000	-1312.000000	1541.448242	4007.428711
275.000000	-1312.000000	1540.424805	3962.630127
275.000000	-1312.000000	1539.400391	3927.614258
275.000000	-1312.000000	1538.375977	3882.851318
275.000000	-1312.000000	1537.351563	3964.986328
275.000000	-1312.000000	1536.326172	3883.641846
275.000000	-1312.000000	1535.301758	3897.450928
275.000000	-1312.000000	1534.276367	3925.884277
275.000000	-1312.000000	1533.250977	3900.671387
275.000000	-1312.000000	1532.224609	3887.655762
275.000000	-1312.000000	1531.199219	3959.936523
275.000000	-1312.000000	1530.172852	4007.822754
275.000000	-1312.000000	1529.146484	3977.741211
275.000000	-1312.000000	1528.120117	4006.120117
275.000000	-1312.000000	1527.093750	3900.572021
275.000000	-1312.000000	1526.066406	3945.994873
275.000000	-1312.000000	1525.039063	3923.252197
275.000000	-1312.000000	1524.011719	3966.217285
275.000000	-1312.000000	1522.984375	3987.269043
275.000000	-1312.000000	1521.956055	3959.667236
275.000000	-1312.000000	1520.927734	3997.732910
275.000000	-1312.000000	1519.899414	4030.919922
275.000000	-1312.000000	1518.871094	4047.077881
275.000000	-1312.000000	1517.842773	4034.066650
275.000000	-1312.000000	1516.813477	3916.585938
275.000000	-1312.000000	1515.784180	3893.891113
275.000000	-1312.000000	1514.754883	3815.347656
275.000000	-1312.000000	1513.725586	3999.071289
275.000000	-1312.000000	1512.695313	3891.407471
275.000000	-1312.000000	1511.666016	3958.537598
275.000000	-1312.000000	1510.635742	4091.155518
275.000000	-1312.000000	1509.604492	4109.693359
275.000000	-1312.000000	1508.574219	3951.160889
275.000000	-1312.000000	1507.542969	3989.120117
275.000000	-1312.000000	1506.511719	3968.875488
275.000000	-1312.000000	1505.480469	4137.708496
275.000000	-1312.000000	1504.449219	4071.394775
275.000000	-1312.000000	1503.416992	4070.528320
275.000000	-1312.000000	1502.384766	4139.912109
275.000000	-1312.000000	1501.352539	4042.154541
275.000000	-1312.000000	1500.320313	4084.879150
275.000000	-1312.000000	1499.288086	3965.386719
275.000000	-1312.000000	1498.254883	4155.750488
275.000000	-1312.000000	1497.221680	4188.743164
275.000000	-1312.000000	1496.188477	4049.949707
275.000000	-1312.000000	1495.155273	4099.881836
275.000000	-1312.000000	1494.121094	4132.864746
275.000000	-1312.000000	1493.086914	4279.468750
275.000000	-1312.000000	1492.052734	4261.636230
275.000000	-1312.000000	1491.018555	4205.143066
275.000000	-1312.000000	1489.983398	4252.571777
275.000000	-1312.000000	1488.949219	4215.429688
275.000000	-1312.000000	1487.914063	4320.800293
275.000000	-1312.000000	1486.877930	4288.488281
275.000000	-1312.000000	1485.842773	4318.958008
275.000000	-1312.000000	1484.806641	4235.972656
275.000000	-1312.000000	1483.771484	4348.487305
275.000000	-1312.000000	1482.734375	4444.065430
275.000000	-1312.000000	1481.698242	4339.396484
275.000000	-1312.000000	1480.662109	4478.343750
275.000000	-1312.000000	1479.625000	4491.854980
275.000000	-1312.000000	1478.587891	4457.148926
275.000000	-1312.000000	1477.550781	4492.348633
275.000000	-1312.000000	1476.512695	4585.362305
275.000000	-1312.000000	1475.475586	4707.244141
275.000000	-1312.000000	1474.437500	4665.294434
275.000000	-1312.000000	1473.399414	4717.274414
275.000000	-1312.000000	1472.360352	4730.712402
275.000000	-1312.000000	1471.322266	4792.283691
275.000000	-1312.000000	1470.283203	4865.860352
275.000000	-1312.000000	1469.244141	4881.662598
275.000000	-1312.000000	1468.205078	4919.106934
275.000000	-1312.000000	1467.165039	4939.700195
275.000000	-1312.000000	1466.125000	5008.372559
275.000000	-1312.000000	1465.084961	5185.190430
275.000000	-1312.000000	1464.044922	5176.872070
275.000000	-1312.000000	1463.004883	5178.168457
275.000000	-1312.000000	1461.963867	5191.475586
275.000000	-1312.000000	1460.922852	5166.347168
275.000000	-1312.000000	1459.881836	5239.683594
275.000000	-1312.000000	1458.840820	5322.591309
275.000000	-1312.000000	1457.798828	5335.854980
275.000000	-1312.000000	1456.757813	5236.322266
275.000000	-1312.000000	1455.715820	5446.337891
275.000000	-1312.000000	1454.672852	5322.835938
275.000000	-1312.000000	1453.630859	5362.466797
275.000000	-1312.000000	1452.587891	5411.671387
275.000000	-1312.000000	1451.544922	5415.307617
275.000000	-1312.000000	1450.501953	5550.760254
275.000000	-1312.000000	1449.458984	5542.383301
275.000000	-1312.000000	1448.415039	5522.030762
275.000000	-1312.000000	1447.372070	5367.558105
275.000000	-1312.000000	1446.327148	5416.695801
275.000000	-1312.000000	1445.283203	5338.922852
275.000000	-1312.000000	1444.239258	5277.938477
275.000000	-1312.000000	1443.194336	5382.104004
275.000000	-1312.000000	1442.149414	5333.098633
275.000000	-1312.000000	1441.104492	5288.897949
275.000000	-1312.000000	1440.058594	5232.757813
275.000000	-1312.000000	1439.013672	5078.607910
275.000000	-1312.000000	1437.967773	5067.956543
275.000000	-1312.000000	1436.921875	4956.928223
275.000000	-1312.000000	1435.875000	5006.044434
275.000000	-1312.000000	1434.829102	5004.970215
275.000000	-1312.000000	1433.782227	4920.298828
275.000000	-1312.000000	1432.735352	4888.199219
275.000000	-1312.000000	1431.688477	4973.098633
275.000000	-1312.000000	1430.640625	4972.031250
275.000000	-1312.000000	1429.592773	4844.481934
275.000000	-1312.000000	1428.544922	4955.580078
275.000000	-1312.000000	1427.497070	5052.317871
275.000000	-1312.000000	1426.449219	4967.760742
275.000000	-1312.000000	1425.400391	4930.927246
275.000000	-1312.000000	1424.351563	5020.455078
275.000000	-1312.000000	1423.302734	4952.641602
275.000000	-1312.000000	1422.253906	5085.016602
275.000000	-1312.000000	1421.204102	4933.835449
275.000000	-1312.000000	1420.155273	4985.174805
275.000000	-1312.000000	1419.104492	4934.094727
275.000000	-1312.000000	1418.054688	4902.083008
275.000000	-1312.000000	1417.004883	4770.111816
275.000000	-1312.000000	1415.954102	4985.645508
275.000000	-1312.000000	1414.903320	5017.882324
275.000000	-1312.000000	1413.852539	4900.242676
275.000000	-1312.000000	1412.800781	4911.079102
275.000000	-1312.000000	1411.750000	4912.398926
275.000000	-1312.000000	1410.698242	4994.543457
275.000000	-1312.000000	1409.646484	4945.933594
275.000000	-1312.000000	1408.593750	5075.558594
275.000000	-1312.000000	1407.541992	5012.696777
275.000000	-1312.000000	1406.489258	4992.614746
275.000000	-1312.000000	1405.436523	5060.403809
275.000000	-1312.000000	1404.383789	5173.271484
275.000000	-1312.000000	1403.330078	5062.968750
275.000000	-1312.000000	1402.276367	5033.398926
275.000000	-1312.000000	1401.222656	5065.529297
275.000000	-1312.000000	1400.168945	5085.785156
275.000000	-1312.000000	1399.115234	4980.337402
275.000000	-1312.000000	1398.060547	4929.469727
275.000000	-1312.000000	1397.005859	4956.852051
275.000000	-1312.000000	1395.951172	4953.411621
275.000000	-1312.000000	1394.896484	4869.407715
275.000000	-1312.000000	1393.840820	4901.521973
275.000000	-1312.000000	1392.785156	5023.625977
275.000000	-1312.000000	1391.729492	4953.867676
275.000000	-1312.000000	1390.673828	4907.814453
275.000000	-1312.000000	1389.617188	5027.469238
275.000000	-1312.000000	1388.561523	4936.456543
275.000000	-1312.000000	1387.503906	4914.094727
275.000000	-1312.000000	1386.447266	5019.476563
275.000000	-1312.000000	1385.390625	5011.295898
275.000000	-1312.000000	1384.333008	5005.482422
275.000000	-1312.000000	1383.275391	4947.665039
275.000000	-1312.000000	1382.217773	4946.593750
275.000000	-1312.000000	1381.159180	5082.569824
275.000000	-1312.000000	1380.101563	5126.354004
275.000000	-1312.000000	1379.042969	4806.391602
275.000000	-1312.000000	1377.984375	4982.451172
275.000000	-1312.000000	1376.924805	4967.206055
275.000000	-1312.000000	1375.866211	4951.967285
275.000000	-1312.000000	1374.806641	4991.010254
275.000000	-1312.000000	1373.747070	4975.771973
275.000000	-1312.000000	1372.687500	4870.905762
275.000000	-1312.000000	1371.626953	4848.624512
275.000000	-1312.000000	1370.566406	4890.011719
275.000000	-1312.000000	1369.505859	4811.160645
275.000000	-1312.000000	1368.445313	4784.191895
275.000000	-1312.000000	1367.384766	4832.633789
275.000000	-1312.000000	1366.323242	4753.845215
275.000000	-1312.000000	1365.261719	4771.654297
275.000000	-1312.000000	1364.200195	4765.907715
275.000000	-1312.000000	1363.137695	4713.079590
275.000000	-1312.000000	1362.076172	4815.616699
275.000000	-1312.000000	1361.013672	4962.818359
275.000000	-1312.000000	1359.951172	4841.753906
275.000000	-1312.000000	1358.887695	4803.066406
275.000000	-1312.000000	1357.825195	4747.933594
275.000000	-1312.000000	1356.761719	4838.593750
275.000000	-1312.000000	1355.698242	4783.476074
275.000000	-1312.000000	1354.633789	4784.784668
275.000000	-1312.000000	1353.570313	4882.424805
275.000000	-1312.000000	1352.505859	4944.785645
275.000000	-1312.000000	1351.441406	4795.749512
275.000000	-1312.000000	1350.376953	4944.978516
275.000000	-1312.000000	1349.311523	5063.624512
275.000000	-1312.000000	1348.247070	4888.840820
275.000000	-1312.000000	1347.181641	5028.564941
275.000000	-1312.000000	1346.115234	5067.350098
275.000000	-1312.000000	1345.049805	5031.062012
275.000000	-1312.000000	1343.983398	5058.103027
275.000000	-1312.000000	1342.916992	5066.376465
275.000000	-1312.000000	1341.850586	5086.365723
275.000000	-1312.000000	1340.784180	5139.153809
275.000000	-1312.000000	1339.716797	5034.942383
275.000000	-1312.000000	1338.649414	5085.375000
275.000000	-1312.000000	1337.582031	5208.383789
275.000000	-1312.000000	1336.514648	5101.882813
275.000000	-1312.000000	1335.446289	5089.062500
275.000000	-1312.000000	1334.377930	5069.226074
275.000000	-1312.000000	1333.309570	5147.671875
275.000000	-1312.000000	1332.241211	5207.368164
275.000000	-1312.000000	1331.171875	5173.484375
275.000000	-1312.000000	1330.102539	5127.923340
275.000000	-1312.000000	1329.033203	5166.542969
275.000000	-1312.000000	1327.963867	5186.446289
275.000000	-1312.000000	1326.893555	5143.248047
275.000000	-1312.000000	1325.824219	5095.395020
275.000000	-1312.000000	1324.753906	5082.599121
275.000000	-1312.000000	1323.682617	5097.831055
275.000000	-1312.000000	1322.612305	5197.105957
275.000000	-1312.000000	1321.541016	5079.254883
275.000000	-1312.000000	1320.469727	5080.473633
275.000000	-1312.000000	1319.398438	5135.354980
275.000000	-1312.000000	1318.327148	5250.860840
275.000000	-1312.000000	1317.254883	5219.389160
275.000000	-1312.000000	1316.182617	5038.705078
275.000000	-1312.000000	1315.110352	5109.863281
275.000000	-1312.000000	1314.037109	5078.441406
275.000000	-1312.000000	1312.964844	5084.315430
275.000000	-1312.000000	1311.891602	5043.593750
275.000000	-1312.000000	1310.818359	5096.053223
275.000000	-1312.000000	1309.744141	5094.931641
275.000000	-1312.000000	1308.670898	5117.090820
275.000000	-1312.000000	1307.596680	5122.946289
275.000000	-1312.000000	1306.522461	5010.120117
275.000000	-1312.000000	1305.447266	4981.098145
275.000000	-1312.000000	1304.373047	5131.191406
275.000000	-1312.000000	1303.297852	5060.294922
275.000000	-1312.000000	1302.222656	5101.029297
275.000000	-1312.000000	1301.147461	5164.989258
275.000000	-1312.000000	1300.071289	5184.765625
275.000000	-1312.000000	1298.995117	5051.184570
275.000000	-1312.000000	1297.918945	5252.165527
275.000000	-1312.000000	1296.842773	5162.753418
275.000000	-1312.000000	1295.765625	5138.394043
275.000000	-1312.000000	1294.689453	5188.329590
275.000000	-1312.000000	1293.611328	5187.183105
275.000000	-1312.000000	1292.534180	5355.423828
275.000000	-1312.000000	1291.457031	5319.441406
275.000000	-1312.000000	1290.378906	5230.129883
275.000000	-1312.000000	1289.300781	5291.581055
275.000000	-1312.000000	1288.222656	5144.355957
275.000000	-1312.000000	1287.143555	5247.518555
275.000000	-1312.000000	1286.064453	5396.980469
275.000000	-1312.000000	1284.985352	5300.797363
275.000000	-1312.000000	1283.906250	5424.701172
275.000000	-1312.000000	1282.827148	5404.972656
275.000000	-1312.000000	1281.747070	5345.893555
275.000000	-1312.000000	1280.666992	5539.145508
275.000000	-1312.000000	1279.586914	5424.520020
275.000000	-1312.000000	1278.505859	5587.589355
275.000000	-1312.000000	1277.425781	5567.843262
275.000000	-1312.000000	1276.344727	5504.165039
275.000000	-1312.000000	1275.263672	5616.238770
275.000000	-1312.000000	1274.181641	5494.785156
275.000000	-1312.000000	1273.099609	5486.630859
275.000000	-1312.000000	1272.018555	5543.176758
275.000000	-1312.000000	1270.935547	5615.867676
275.000000	-1312.000000	1269.853516	5485.281250
275.000000	-1312.000000	1268.770508	5714.968750
275.000000	-1312.000000	1267.687500	5681.376953
275.000000	-1312.000000	1266.604492	5691.652344
275.000000	-1312.000000	1265.521484	5591.160645
275.000000	-1312.000000	1264.437500	5622.213867
275.000000	-1312.000000	1263.353516	5597.895996
275.000000	-1312.000000	1262.269531	5684.275879
275.000000	-1312.000000	1261.185547	5749.867188
275.000000	-1312.000000	1260.100586	5578.017578
275.000000	-1312.000000	1259.015625	5798.000488
275.000000	-1312.000000	1257.930664	5683.813477
275.000000	-1312.000000	1256.845703	5724.006348
275.000000	-1312.000000	1255.759766	5718.122070
275.000000	-1312.000000	1254.673828	5825.057617
275.000000	-1312.000000	1253.587891	5752.397461
275.000000	-1312.000000	1252.501953	6015.768555
275.000000	-1312.000000	1251.415039	5883.275391
275.000000	-1312.000000	1250.328125	5852.055176
275.000000	-1312.000000	1249.241211	5784.050781
275.000000	-1312.000000	1248.154297	5959.802734
275.000000	-1312.000000	1247.066406	5887.206055
275.000000	-1312.000000	1245.978516	5867.501465
275.000000	-1312.000000	1244.890625	5962.692871
275.000000	-1312.000000	1243.802734	5894.736816
275.000000	-1312.000000	1242.713867	5916.382813
275.000000	-1312.000000	1241.625000	5912.759766
275.000000	-1312.000000	1240.536133	5897.659180
275.000000	-1312.000000	1239.447266	5832.070801
275.000000	-1312.000000	1238.357422	5794.046875
275.000000	-1312.000000	1237.267578	5694.097168
275.000000	-1312.000000	1236.177734	5653.826172
275.000000	-1312.000000	1235.087891	5618.159180
275.000000	-1312.000000	1233.997070	5626.066895
275.000000	-1312.000000	1232.906250	5553.747070
275.000000	-1312.000000	1231.815430	5568.539063
275.000000	-1312.000000	1230.724609	5624.562988
275.000000	-1312.000000	1229.632813	5659.945801
275.000000	-1312.000000	1228.541016	5670.122070
275.000000	-1312.000000	1227.449219	5572.685547
275.000000	-1312.000000	1226.356445	5605.765137
275.000000	-1312.000000	1225.264648	5540.424316
275.000000	-1312.000000	1224.171875	5319.530273
275.000000	-1312.000000	1223.079102	5471.589844
275.000000	-1312.000000	1221.985352	5538.963867
275.000000	-1312.000000	1220.892578	5279.348145
275.000000	-1312.000000	1219.798828	5383.308105
275.000000	-1312.000000	1218.705078	5334.099609
275.000000	-1312.000000	1217.610352	5335.179688
275.000000	-1312.000000	1216.516602	5281.433594
275.000000	-1312.000000	1215.421875	5280.239746
275.000000	-1312.000000	1214.326172	5390.928711
275.000000	-1312.000000	1213.231445	5442.214355
275.000000	-1312.000000	1212.135742	5361.102539
275.000000	-1312.000000	1211.040039	5362.170898
275.000000	-1312.000000	1209.944336	5274.269043
275.000000	-1312.000000	1208.848633	5457.814453
275.000000	-1312.000000	1207.751953	5381.330078
275.000000	-1312.000000	1206.655273	5277.523438
275.000000	-1312.000000	1205.558594	5440.428711
275.000000	-1312.000000	1204.461914	5484.768066
275.000000	-1312.000000	1203.364258	5319.496582
275.000000	-1312.000000	1202.266602	5457.225098
275.000000	-1312.000000	1201.168945	5419.551758
275.000000	-1312.000000	1200.070313	5350.022949
275.000000	-1312.000000	1198.971680	5473.992188
275.000000	-1312.000000	1197.873047	5461.370117
275.000000	-1312.000000	1196.774414	5410.077148
275.000000	-1312.000000	1195.675781	5347.434082
275.000000	-1312.000000	1194.576172	5423.533691
275.000000	-1312.000000	1193.476563	5333.632813
275.000000	-1312.000000	1192.376953	5427.883301
275.000000	-1312.000000	1191.276367	5392.560059
275.000000	-1312.000000	1190.175781	5350.436035
275.000000	-1312.000000	1189.075195	5485.502441
275.000000	-1312.000000	1187.974609	5372.977051
275.000000	-1312.000000	1186.873047	5321.802734
275.000000	-1312.000000	1185.772461	5365.985840
275.000000	-1312.000000	1184.669922	5314.834961
275.000000	-1312.000000	1183.568359	5338.578125
275.000000	-1312.000000	1182.466797	5595.947266
275.000000	-1312.000000	1181.364258	5501.688477
275.000000	-1312.000000	1180.261719	5362.126465
275.000000	-1312.000000	1179.158203	5369.967285
275.000000	-1312.000000	1178.055664	5506.979492
275.000000	-1312.000000	1176.952148	5401.495605
275.000000	-1312.000000	1175.848633	5427.441895
275.000000	-1312.000000	1174.744141	5505.462891
275.000000	-1312.000000	1173.640625	5436.276367
275.000000	-1312.000000	1172.536133	5604.804199
275.000000	-1312.000000	1171.430664	5576.361328
275.000000	-1312.000000	1170.326172	5541.143066
275.000000	-1312.000000	1169.220703	5569.278809
275.000000	-1312.000000	1168.115234	5477.537598
275.000000	-1312.000000	1167.009766	5537.328125
275.000000	-1312.000000	1165.904297	5513.450684
275.000000	-1312.000000	1164.797852	5668.125000
275.000000	-1312.000000	1163.691406	5470.245605
275.000000	-1312.000000	1162.584961	5636.151855
275.000000	-1312.000000	1161.477539	5637.113770
275.000000	-1312.000000	1160.370117	5592.915527
275.000000	-1312.000000	1159.262695	5711.270996
275.000000	-1312.000000	1158.155273	5621.936523
275.000000	-1312.000000	1157.047852	5521.360352
275.000000	-1312.000000	1155.939453	5565.204590
275.000000	-1312.000000	1154.831055	5545.878906
275.000000	-1312.000000	1153.721680	5407.055176
275.000000	-1312.000000	1152.613281	5599.677246
275.000000	-1312.000000	1151.503906	5501.472168
275.000000	-1312.000000	1150.394531	5452.883301
275.000000	-1312.000000	1149.284180	5435.854004
275.000000	-1312.000000	1148.174805	5547.208496
275.000000	-1312.000000	1147.064453	5536.919434
275.000000	-1312.000000	1145.953125	5528.884766
275.000000	-1312.000000	1144.842773	5493.845703
275.000000	-1312.000000	1143.731445	5528.576172
275.000000	-1312.000000	1142.620117	5543.042969
275.000000	-1312.000000	1141.508789	5575.495605
275.000000	-1312.000000	1140.397461	5587.694824
275.000000	-1312.000000	1139.285156	5525.701660
275.000000	-1312.000000	1138.172852	5569.370605
275.000000	-1312.000000	1137.060547	5565.831543
275.000000	-1312.000000	1135.947266	5721.793457
275.000000	-1312.000000	1134.833984	5603.674805
275.000000	-1312.000000	1133.720703	5543.991699
275.000000	-1312.000000	1132.607422	5625.765137
275.000000	-1312.000000	1131.493164	5595.279785
275.000000	-1312.000000	1130.378906	5616.417480
275.000000	-1312.000000	1129.264648	5489.482910
275.000000	-1312.000000	1128.150391	5649.688965
275.000000	-1312.000000	1127.035156	5601.284668
275.000000	-1312.000000	1125.919922	5660.508301
275.000000	-1312.000000	1124.804688	5647.982910
275.000000	-1312.000000	1123.688477	5633.221680
275.000000	-1312.000000	1122.573242	5725.996582
275.000000	-1312.000000	1121.457031	5664.188965
275.000000	-1312.000000	1120.339844	5754.672852
275.000000	-1312.000000	1119.223633	5692.885742
275.000000	-1312.000000	1118.106445	5660.221680
275.000000	-1312.000000	1116.989258	5703.651367
275.000000	-1312.000000	1115.871094	5805.223145
275.000000	-1312.000000	1114.753906	5712.166504
275.000000	-1312.000000	1113.635742	5701.885742
275.000000	-1312.000000	1112.517578	5675.960449
275.000000	-1312.000000	1111.398438	5770.735840
275.000000	-1312.000000	1110.280273	5827.479980
275.000000	-1312.000000	1109.161133	5819.412109
275.000000	-1312.000000	1108.041992	5936.418945
275.000000	-1312.000000	1106.921875	5964.054199
275.000000	-1312.000000	1105.801758	5964.886719
275.000000	-1312.000000	1104.681641	5945.631836
275.000000	-1312.000000	1103.561523	6004.480957
275.000000	-1312.000000	1102.440430	6101.225098
275.000000	-1312.000000	1101.320313	6052.955566
275.000000	-1312.000000	1100.198242	6040.383301
275.000000	-1312.000000	1099.077148	6143.735840
275.000000	-1312.000000	1097.955078	6271.554688
275.000000	-1312.000000	1096.833008	6196.548340
275.000000	-1312.000000	1095.710938	6284.194824
275.000000	-1312.000000	1094.588867	6213.672852
275.000000	-1312.000000	1093.465820	6312.405273
275.000000	-1312.000000	1092.342773	6302.012207
275.000000	-1312.000000	1091.219727	6376.193848
275.000000	-1312.000000	1090.095703	6396.938965
275.000000	-1312.000000	1088.971680	6553.368164
275.000000	-1312.000000	1087.847656	6514.012207
275.000000	-1312.000000	1086.723633	6650.326660
275.000000	-1312.000000	1085.598633	6533.162109
275.000000	-1312.000000	1084.473633	6700.519043
275.000000	-1312.000000	1083.348633	6907.789063
275.000000	-1312.000000	1082.223633	6857.284180
275.000000	-1312.000000	1081.097656	6897.855957
275.000000	-1312.000000	1079.971680	7109.369141
275.000000	-1312.000000	1078.845703	7278.605957
275.000000	-1312.000000	1077.718750	7310.168457
275.000000	-1312.000000	1076.591797	7472.618652
275.000000	-1312.000000	1075.464844	7544.045410
275.000000	-1312.000000	1074.337891	7577.736816
275.000000	-1312.000000	1073.209961	7606.976563
275.000000	-1312.000000	1072.082031	7731.515137
275.000000	-1312.000000	1070.954102	7685.355469
275.000000	-1312.000000	1069.826172	7590.474609
275.000000	-1312.000000	1068.697266	7635.183594
275.000000	-1312.000000	1067.568359	7538.143066
275.000000	-1312.000000	1066.439453	7463.286621
275.000000	-1312.000000	1065.309570	7324.275391
275.000000	-1312.000000	1064.179688	7298.187500
275.000000	-1312.000000	1063.049805	7269.898438
275.000000	-1312.000000	1061.919922	7246.045410
275.000000	-1312.000000	1060.789063	7034.239746
275.000000	-1312.000000	1059.658203	7028.138184
275.000000	-1312.000000	1058.527344	6957.940918
275.000000	-1312.000000	1057.395508	6792.756836
275.000000	-1312.000000	1056.264648	6947.987305
275.000000	-1312.000000	1055.131836	6818.221680
275.000000	-1312.000000	1054.000000	6657.602539
275.000000	-1312.000000	1052.868164	6684.707520
275.000000	-1312.000000	1051.735352	6665.449707
275.000000	-1312.000000	1050.601563	6604.275391
275.000000	-1312.000000	1049.468750	6613.722168
275.000000	-1312.000000	1048.334961	6729.028320
275.000000	-1312.000000	1047.201172	6833.253418
275.000000	-1312.000000	1046.067383	6714.776855
275.000000	-1312.000000	1044.932617	6807.933105
275.000000	-1312.000000	1043.798828	6870.195801
275.000000	-1312.000000	1042.663086	6857.530273
275.000000	-1312.000000	1041.528320	6961.593750
275.000000	-1312.000000	1040.392578	6926.891602
275.000000	-1312.000000	1039.256836	6940.633301
275.000000	-1312.000000	1038.121094	7031.393555
275.000000	-1312.000000	1036.985352	7053.902344
275.000000	-1312.000000	1035.848633	7039.003906
275.000000	-1312.000000	1034.711914	7094.484863
275.000000	-1312.000000	1033.574219	7198.307617
275.000000	-1312.000000	1032.437500	7249.325195
275.000000	-1312.000000	1031.299805	7175.055176
275.000000	-1312.000000	1030.162109	7076.652344
275.000000	-1312.000000	1029.023438	6962.920410
275.000000	-1312.000000	1027.884766	7053.467773
275.000000	-1312.000000	1026.746094	7029.807617
275.000000	-1312.000000	1025.607422	6909.581055
275.000000	-1312.000000	1024.467773	6835.493652
275.000000	-1312.000000	1023.329102	6943.530762
275.000000	-1312.000000	1022.188477	6876.048828
275.000000	-1312.000000	1021.048828	6755.971191
275.000000	-1312.000000	1019.908203	6769.678711
275.000000	-1312.000000	1018.767578	6711.051270
275.000000	-1312.000000	1017.626953	6735.716309
275.000000	-1312.000000	1016.485352	6661.789063
275.000000	-1312.000000	1015.343750	6719.303711
275.000000	-1312.000000	1014.202148	6656.361816
275.000000	-1312.000000	1013.060547	6735.737793
275.000000	-1312.000000	1011.917969	6646.558105
275.000000	-1312.000000	1010.775391	6518.036621
275.000000	-1312.000000	1009.632813	6595.197754
275.000000	-1312.000000	1008.489258	6895.387207
275.000000	-1312.000000	1007.345703	6814.996094
275.000000	-1312.000000	1006.202148	6972.901855
275.000000	-1312.000000	1005.058594	7065.169922
275.000000	-1312.000000	1003.914063	7461.078125
275.000000	-1312.000000	1002.769531	7775.974121
275.000000	-1312.000000	1001.624023	7817.749023
275.000000	-1312.000000	1000.479492	7663.014160
275.000000	-1312.000000	999.333984	7246.434570
275.000000	-1312.000000	998.188477	7072.273926
275.000000	-1312.000000	997.041992	7007.276367
275.000000	-1312.000000	995.896484	6903.050781
275.000000	-1312.000000	994.750000	6574.280762
275.000000	-1312.000000	993.602539	6862.607910
275.000000	-1312.000000	992.456055	6821.694824
275.000000	-1312.000000	991.308594	6848.347168
275.000000	-1312.000000	990.161133	6885.876953
275.000000	-1312.000000	989.012695	6897.252930
275.000000	-1312.000000	987.864258	6821.529785
275.000000	-1312.000000	986.715820	6926.515137
275.000000	-1312.000000	985.567383	6935.693359
275.000000	-1312.000000	984.417969	7010.136719
275.000000	-1312.000000	983.268555	6973.608398
275.000000	-1312.000000	982.119141	7178.481445
275.000000	-1312.000000	980.969727	7020.177246
275.000000	-1312.000000	979.819336	7272.754395
275.000000	-1312.000000	978.668945	7347.016602
275.000000	-1312.000000	977.517578	7501.623535
275.000000	-1312.000000	976.367188	7634.433105
275.000000	-1312.000000	975.215820	7914.832520
275.000000	-1312.000000	974.064453	8301.464844
275.000000	-1312.000000	972.912109	8898.429688
275.000000	-1312.000000	971.759766	9202.171875
275.000000	-1312.000000	970.607422	9985.172852
275.000000	-1312.000000	969.455078	10668.021484
275.000000	-1312.000000	968.301758	11669.256836
275.000000	-1312.000000	967.148438	12795.717773
275.000000	-1312.000000	965.995117	13624.721680
275.000000	-1312.000000	964.840820	14854.131836
275.000000	-1312.000000	963.686523	16065.600586
275.000000	-1312.000000	962.532227	17185.513672
275.000000	-1312.000000	961.377930	17804.757813
275.000000	-1312.000000	960.222656	18564.378906
275.000000	-1312.000000	959.067383	18819.431641
275.000000	-1312.000000	957.912109	18449.142578
275.000000	-1312.000000	956.755859	17787.052734
275.000000	-1312.000000	955.599609	16889.601563
275.000000	-1312.000000	954.443359	16150.400391
275.000000	-1312.000000	953.286133	15160.865234
275.000000	-1312.000000	952.128906	14277.692383
275.000000	-1312.000000	950.971680	13263.190430
275.000000	-1312.000000	949.814453	12685.429688
275.000000	-1312.000000	948.656250	12006.479492
275.000000	-1312.000000	947.498047	11466.010742
275.000000	-1312.000000	946.339844	10886.965820
275.000000	-1312.000000	945.180664	10359.987305
275.000000	-1312.000000	944.021484	9995.038086
275.000000	-1312.000000	942.862305	9600.080078
275.000000	-1312.000000	941.703125	9254.901367
275.000000	-1312.000000	940.542969	8776.267578
275.000000	-1312.000000	939.382813	8690.033203
275.000000	-1312.000000	938.221680	8448.738281
275.000000	-1312.000000	937.061523	8145.107422
275.000000	-1312.000000	935.900391	8000.957031
275.000000	-1312.000000	934.739258	7990.337402
275.000000	-1312.000000	933.577148	7857.055664
275.000000	-1312.000000	932.415039	7480.721680
275.000000	-1312.000000	931.252930	7465.934082
275.000000	-1312.000000	930.089844	7375.888672
275.000000	-1312.000000	928.927734	7238.589844
275.000000	-1312.000000	927.764648	7215.273438
275.000000	-1312.000000	926.600586	7071.635254
275.000000	-1312.000000	925.437500	7175.115723
275.000000	-1312.000000	924.273438	7012.228516
275.000000	-1312.000000	923.108398	7188.672363
275.000000	-1312.000000	921.944336	7032.300781
275.000000	-1312.000000	920.779297	7071.299805
275.000000	-1312.000000	919.614258	6964.381348
275.000000	-1312.000000	918.448242	7022.679688
275.000000	-1312.000000	917.282227	6842.914063
275.000000	-1312.000000	916.116211	6911.930176
275.000000	-1312.000000	914.950195	6848.022461
275.000000	-1312.000000	913.783203	6835.572754
275.000000	-1312.000000	912.616211	6842.408691
275.000000	-1312.000000	911.449219	6870.657227
275.000000	-1312.000000	910.281250	6714.748535
275.000000	-1312.000000	909.113281	6648.824707
275.000000	-1312.000000	907.945313	6627.874512
275.000000	-1312.000000	906.777344	6675.399902
275.000000	-1312.000000	905.608398	6780.652832
275.000000	-1312.000000	904.439453	6573.635254
275.000000	-1312.000000	903.269531	6612.582031
275.000000	-1312.000000	902.100586	6636.546875
275.000000	-1312.000000	900.930664	6694.687012
275.000000	-1312.000000	899.759766	6690.843750
275.000000	-1312.000000	898.589844	6605.843750
275.000000	-1312.000000	897.418945	6719.458496
275.000000	-1312.000000	896.247070	6534.163086
275.000000	-1312.000000	895.076172	6455.666016
275.000000	-1312.000000	893.904297	6556.427246
275.000000	-1312.000000	892.732422	6563.282715
275.000000	-1312.000000	891.559570	6457.112793
275.000000	-1312.000000	890.386719	6711.290527
275.000000	-1312.000000	889.213867	6739.411133
275.000000	-1312.000000	888.041016	6765.385254
275.000000	-1312.000000	886.867188	6623.052246
275.000000	-1312.000000	885.693359	6670.337891
275.000000	-1312.000000	884.519531	6698.435059
275.000000	-1312.000000	883.344727	6632.855957
275.000000	-1312.000000	882.169922	6722.660156
275.000000	-1312.000000	880.995117	6906.029785
275.000000	-1312.000000	879.819336	6919.143066
275.000000	-1312.000000	878.644531	6879.086914
275.000000	-1312.000000	877.467773	6747.635742
275.000000	-1312.000000	876.291992	6875.545410
275.000000	-1312.000000	875.115234	6744.160156
275.000000	-1312.000000	873.938477	6855.007813
275.000000	-1312.000000	872.760742	6791.651855
275.000000	-1312.000000	871.583984	6963.999512
275.000000	-1312.000000	870.406250	6739.326172
275.000000	-1312.000000	869.227539	6860.666016
275.000000	-1312.000000	868.049805	6858.893066
275.000000	-1312.000000	866.871094	6812.578613
275.000000	-1312.000000	865.691406	6927.439941
275.000000	-1312.000000	864.512695	6764.536133
275.000000	-1312.000000	863.333008	6866.631836
275.000000	-1312.000000	862.153320	6869.090332
275.000000	-1312.000000	860.972656	6907.556152
275.000000	-1312.000000	859.791992	6867.645996
275.000000	-1312.000000	858.611328	6918.792480
275.000000	-1312.000000	857.429688	6950.861328
275.000000	-1312.000000	856.249023	6900.387207
275.000000	-1312.000000	855.067383	7017.061035
275.000000	-1312.000000	853.884766	6926.409180
275.000000	-1312.000000	852.702148	7007.067871
275.000000	-1312.000000	851.519531	6973.536621
275.000000	-1312.000000	850.336914	6933.681641
275.000000	-1312.000000	849.153320	6974.129395
275.000000	-1312.000000	847.969727	6902.609375
275.000000	-1312.000000	846.786133	6953.600098
275.000000	-1312.000000	845.601563	6985.562500
275.000000	-1312.000000	844.416992	6935.196289
275.000000	-1312.000000	843.232422	6832.105957
275.000000	-1312.000000	842.046875	6775.475098
275.000000	-1312.000000	840.861328	6807.445313
275.000000	-1312.000000	839.675781	6982.763184
275.000000	-1312.000000	838.490234	6961.965332
275.000000	-1312.000000	837.303711	6829.494629
275.000000	-1312.000000	836.117188	6834.024902
275.000000	-1312.000000	834.929688	6834.339355
275.000000	-1312.000000	833.742188	6927.296875
275.000000	-1312.000000	832.554688	7022.309082
275.000000	-1312.000000	831.367188	6921.555664
275.000000	-1312.000000	830.178711	6776.671875
275.000000	-1312.000000	828.990234	6762.270508
275.000000	-1312.000000	827.800781	6806.753418
275.000000	-1312.000000	826.612305	6722.975098
275.000000	-1312.000000	825.421875	6653.950684
275.000000	-1312.000000	824.232422	6637.490234
275.000000	-1312.000000	823.041992	6667.249512
275.000000	-1312.000000	821.851563	6745.292480
275.000000	-1312.000000	820.661133	6703.623047
275.000000	-1312.000000	819.469727	6741.732910
275.000000	-1312.000000	818.278320	6796.608398
275.000000	-1312.000000	817.086914	6752.856445
275.000000	-1312.000000	815.894531	6990.158203
275.000000	-1312.000000	814.702148	7137.175293
275.000000	-1312.000000	813.509766	7173.017090
275.000000	-1312.000000	812.316406	7282.184082
275.000000	-1312.000000	811.124023	7460.428223
275.000000	-1312.000000	809.929688	7380.954590
275.000000	-1312.000000	808.736328	7234.516602
275.000000	-1312.000000	807.541992	7125.834961
275.000000	-1312.000000	806.347656	6950.239258
275.000000	-1312.000000	805.152344	6845.872559
275.000000	-1312.000000	803.957031	6620.240723
275.000000	-1312.000000	802.761719	6656.121094
275.000000	-1312.000000	801.565430	6712.886719
275.000000	-1312.000000	800.370117	6451.935547
275.000000	-1312.000000	799.172852	6487.828125
275.000000	-1312.000000	797.976563	6371.208496
275.000000	-1312.000000	796.779297	6365.333496
275.000000	-1312.000000	795.582031	6286.386719
275.000000	-1312.000000	794.383789	6249.225586
275.000000	-1312.000000	793.186523	6318.504395
275.000000	-1312.000000	791.987305	6300.126953
275.000000	-1312.000000	790.789063	6267.159180
275.000000	-1312.000000	789.589844	6234.208008
275.000000	-1312.000000	788.390625	6313.833496
275.000000	-1312.000000	787.190430	6287.136230
275.000000	-1312.000000	785.991211	6368.786133
275.000000	-1312.000000	784.791016	6360.830566
275.000000	-1312.000000	783.589844	6325.809570
275.000000	-1312.000000	782.388672	6359.500488
275.000000	-1312.000000	781.187500	6332.820313
275.000000	-1312.000000	779.986328	6387.293945
275.000000	-1312.000000	778.784180	6371.017578
275.000000	-1312.000000	777.582031	6319.398438
275.000000	-1312.000000	776.378906	6217.912109
275.000000	-1312.000000	775.176758	6264.040039
275.000000	-1312.000000	773.973633	6459.739746
275.000000	-1312.000000	772.769531	6320.904297
275.000000	-1312.000000	771.565430	6360.732910
275.000000	-1312.000000	770.361328	6253.137695
275.000000	-1312.000000	769.157227	6355.225586
275.000000	-1312.000000	767.952148	6478.006836
275.000000	-1312.000000	766.747070	6461.735840
275.000000	-1312.000000	765.541992	6412.291016
275.000000	-1312.000000	764.335938	6381.531250
275.000000	-1312.000000	763.129883	6425.403809
275.000000	-1312.000000	761.922852	6434.024902
275.000000	-1312.000000	760.716797	6450.926758
275.000000	-1312.000000	759.508789	6380.834473
275.000000	-1312.000000	758.301758	6374.962891
275.000000	-1312.000000	757.093750	6340.114746
275.000000	-1312.000000	755.885742	6292.868164
275.000000	-1312.000000	754.677734	6380.116699
275.000000	-1312.000000	753.468750	6392.860352
275.000000	-1312.000000	752.259766	6428.339844
275.000000	-1312.000000	751.049805	6323.236328
275.000000	-1312.000000	749.840820	6298.783691
275.000000	-1312.000000	748.629883	6284.672363
275.000000	-1312.000000	747.419922	6357.314453
275.000000	-1312.000000	746.208984	6227.561035
275.000000	-1312.000000	744.998047	6349.718750
275.000000	-1312.000000	743.786133	6269.564941
275.000000	-1312.000000	742.575195	6338.000000
275.000000	-1312.000000	741.363281	6346.581055
275.000000	-1312.000000	740.150391	6326.288086
275.000000	-1312.000000	738.937500	6369.910156
275.000000	-1312.000000	737.724609	6230.086914
275.000000	-1312.000000	736.510742	6409.689941
275.000000	-1312.000000	735.297852	6175.180664
275.000000	-1312.000000	734.083008	6389.704102
275.000000	-1312.000000	732.869141	6330.310059
275.000000	-1312.000000	731.654297	6266.830566
275.000000	-1312.000000	730.439453	6335.065430
275.000000	-1312.000000	729.223633	6438.229492
275.000000	-1312.000000	728.007813	6323.358887
275.000000	-1312.000000	726.791992	6317.508789
275.000000	-1312.000000	725.575195	6412.367188
275.000000	-1312.000000	724.359375	6377.727051
