#X		#Y		#Wave		#Intensity
573.000000	-1576.000000	1819.745117	3398.501221
573.000000	-1576.000000	1818.780273	3375.170654
573.000000	-1576.000000	1817.815430	3307.047363
573.000000	-1576.000000	1816.850586	3246.727295
573.000000	-1576.000000	1815.885742	3383.319092
573.000000	-1576.000000	1814.920898	3335.958984
573.000000	-1576.000000	1813.955078	3405.145752
573.000000	-1576.000000	1812.989258	3427.701904
573.000000	-1576.000000	1812.023438	3357.068115
573.000000	-1576.000000	1811.057617	3493.486816
573.000000	-1576.000000	1810.091797	3381.474609
573.000000	-1576.000000	1809.125000	3372.976563
573.000000	-1576.000000	1808.158203	3341.207764
573.000000	-1576.000000	1807.191406	3363.748535
573.000000	-1576.000000	1806.223633	3437.978516
573.000000	-1576.000000	1805.256836	3424.306885
573.000000	-1576.000000	1804.289063	3449.398682
573.000000	-1576.000000	1803.321289	3396.981934
573.000000	-1576.000000	1802.353516	3318.761230
573.000000	-1576.000000	1801.384766	3410.994873
573.000000	-1576.000000	1800.416992	3428.323242
573.000000	-1576.000000	1799.448242	3406.928711
573.000000	-1576.000000	1798.479492	3450.054932
573.000000	-1576.000000	1797.510742	3480.262695
573.000000	-1576.000000	1796.541016	3358.277588
573.000000	-1576.000000	1795.571289	3380.755859
573.000000	-1576.000000	1794.601563	3385.177246
573.000000	-1576.000000	1793.631836	3446.304688
573.000000	-1576.000000	1792.662109	3453.286865
573.000000	-1576.000000	1791.691406	3514.373047
573.000000	-1576.000000	1790.721680	3433.754883
573.000000	-1576.000000	1789.750977	3422.707520
573.000000	-1576.000000	1788.779297	3553.281250
573.000000	-1576.000000	1787.808594	3629.738281
573.000000	-1576.000000	1786.836914	3474.527100
573.000000	-1576.000000	1785.865234	3466.053711
573.000000	-1576.000000	1784.893555	3575.923828
573.000000	-1576.000000	1783.921875	3639.449463
573.000000	-1576.000000	1782.949219	3489.513672
573.000000	-1576.000000	1781.977539	3578.739990
573.000000	-1576.000000	1781.004883	3500.853027
573.000000	-1576.000000	1780.031250	3592.607910
573.000000	-1576.000000	1779.058594	3594.398926
573.000000	-1576.000000	1778.084961	3588.482910
573.000000	-1576.000000	1777.112305	3605.682861
573.000000	-1576.000000	1776.138672	3494.495605
573.000000	-1576.000000	1775.164063	3609.255859
573.000000	-1576.000000	1774.190430	3577.677002
573.000000	-1576.000000	1773.215820	3661.578613
573.000000	-1576.000000	1772.241211	3635.132813
573.000000	-1576.000000	1771.266602	3588.179688
573.000000	-1576.000000	1770.291992	3679.717285
573.000000	-1576.000000	1769.316406	3491.771240
573.000000	-1576.000000	1768.340820	3578.163574
573.000000	-1576.000000	1767.365234	3613.266846
573.000000	-1576.000000	1766.389648	3584.303711
573.000000	-1576.000000	1765.414063	3634.759277
573.000000	-1576.000000	1764.437500	3549.463379
573.000000	-1576.000000	1763.460938	3584.542236
573.000000	-1576.000000	1762.484375	3704.080811
573.000000	-1576.000000	1761.507813	3654.654785
573.000000	-1576.000000	1760.531250	3697.364746
573.000000	-1576.000000	1759.553711	3665.868896
573.000000	-1576.000000	1758.576172	3718.788086
573.000000	-1576.000000	1757.598633	3735.885742
573.000000	-1576.000000	1756.620117	3752.975830
573.000000	-1576.000000	1755.642578	3657.595703
573.000000	-1576.000000	1754.664063	3667.029053
573.000000	-1576.000000	1753.685547	3714.781494
573.000000	-1576.000000	1752.707031	3772.730469
573.000000	-1576.000000	1751.727539	3672.320557
573.000000	-1576.000000	1750.749023	3776.211670
573.000000	-1576.000000	1749.769531	3724.345215
573.000000	-1576.000000	1748.790039	3708.230469
573.000000	-1576.000000	1747.809570	3676.813477
573.000000	-1576.000000	1746.830078	3688.777344
573.000000	-1576.000000	1745.849609	3841.011963
573.000000	-1576.000000	1744.869141	3796.836914
573.000000	-1576.000000	1743.888672	3806.217529
573.000000	-1576.000000	1742.908203	3756.971436
573.000000	-1576.000000	1741.926758	3743.422119
573.000000	-1576.000000	1740.945313	3877.646973
573.000000	-1576.000000	1739.963867	3836.058594
573.000000	-1576.000000	1738.982422	3901.446777
573.000000	-1576.000000	1738.000000	3918.430908
573.000000	-1576.000000	1737.018555	3866.678467
573.000000	-1576.000000	1736.036133	3939.652588
573.000000	-1576.000000	1735.053711	3951.528809
573.000000	-1576.000000	1734.070313	3859.099854
573.000000	-1576.000000	1733.087891	3906.594971
573.000000	-1576.000000	1732.104492	3938.812988
573.000000	-1576.000000	1731.121094	4054.911865
573.000000	-1576.000000	1730.137695	4003.207275
573.000000	-1576.000000	1729.154297	4040.466064
573.000000	-1576.000000	1728.169922	4019.274170
573.000000	-1576.000000	1727.185547	4132.715820
573.000000	-1576.000000	1726.201172	4042.945801
573.000000	-1576.000000	1725.216797	4161.411621
573.000000	-1576.000000	1724.231445	4094.519775
573.000000	-1576.000000	1723.247070	4083.490479
573.000000	-1576.000000	1722.261719	4227.245117
573.000000	-1576.000000	1721.276367	4330.348633
573.000000	-1576.000000	1720.290039	4263.477539
573.000000	-1576.000000	1719.304688	4194.099609
573.000000	-1576.000000	1718.318359	4375.734863
573.000000	-1576.000000	1717.332031	4273.412109
573.000000	-1576.000000	1716.345703	4211.678711
573.000000	-1576.000000	1715.358398	4238.645996
573.000000	-1576.000000	1714.372070	4273.201172
573.000000	-1576.000000	1713.384766	4378.650391
573.000000	-1576.000000	1712.397461	4210.605469
573.000000	-1576.000000	1711.409180	4217.298828
573.000000	-1576.000000	1710.421875	4332.815918
573.000000	-1576.000000	1709.433594	4291.404297
573.000000	-1576.000000	1708.445313	4277.837402
573.000000	-1576.000000	1707.457031	4269.334961
573.000000	-1576.000000	1706.468750	4402.442383
573.000000	-1576.000000	1705.479492	4444.479492
573.000000	-1576.000000	1704.490234	4400.560547
573.000000	-1576.000000	1703.500977	4510.810547
573.000000	-1576.000000	1702.511719	4464.369141
573.000000	-1576.000000	1701.521484	4521.512695
573.000000	-1576.000000	1700.532227	4588.733887
573.000000	-1576.000000	1699.541992	4645.826660
573.000000	-1576.000000	1698.551758	4647.358398
573.000000	-1576.000000	1697.560547	4752.366699
573.000000	-1576.000000	1696.570313	4635.280762
573.000000	-1576.000000	1695.579102	4762.951172
573.000000	-1576.000000	1694.587891	4731.667969
573.000000	-1576.000000	1693.596680	4740.744629
573.000000	-1576.000000	1692.604492	4850.662598
573.000000	-1576.000000	1691.613281	4786.612305
573.000000	-1576.000000	1690.621094	4838.512207
573.000000	-1576.000000	1689.628906	4824.882324
573.000000	-1576.000000	1688.636719	4844.004883
573.000000	-1576.000000	1687.643555	4893.340820
573.000000	-1576.000000	1686.650391	4957.762695
573.000000	-1576.000000	1685.657227	5062.435059
573.000000	-1576.000000	1684.664063	5111.691895
573.000000	-1576.000000	1683.670898	5098.020508
573.000000	-1576.000000	1682.676758	5036.555664
573.000000	-1576.000000	1681.683594	5128.545410
573.000000	-1576.000000	1680.689453	5067.099609
573.000000	-1576.000000	1679.694336	5020.764648
573.000000	-1576.000000	1678.700195	5145.375977
573.000000	-1576.000000	1677.705078	5129.201172
573.000000	-1576.000000	1676.709961	5165.796387
573.000000	-1576.000000	1675.714844	5172.231934
573.000000	-1576.000000	1674.719727	5151.038574
573.000000	-1576.000000	1673.723633	5172.539551
573.000000	-1576.000000	1672.728516	5201.562988
573.000000	-1576.000000	1671.732422	5197.945313
573.000000	-1576.000000	1670.735352	5242.006836
573.000000	-1576.000000	1669.739258	5270.996094
573.000000	-1576.000000	1668.742188	5297.465332
573.000000	-1576.000000	1667.746094	5143.365723
573.000000	-1576.000000	1666.748047	5124.720215
573.000000	-1576.000000	1665.750977	5113.603027
573.000000	-1576.000000	1664.753906	5195.217285
573.000000	-1576.000000	1663.755859	5159.033203
573.000000	-1576.000000	1662.757813	5070.258301
573.000000	-1576.000000	1661.759766	5131.792969
573.000000	-1576.000000	1660.761719	5080.621094
573.000000	-1576.000000	1659.762695	5197.203125
573.000000	-1576.000000	1658.763672	5085.968750
573.000000	-1576.000000	1657.764648	4982.288086
573.000000	-1576.000000	1656.765625	4978.727051
573.000000	-1576.000000	1655.765625	4982.670898
573.000000	-1576.000000	1654.766602	4981.611328
573.000000	-1576.000000	1653.766602	5053.060059
573.000000	-1576.000000	1652.766602	4979.493164
573.000000	-1576.000000	1651.765625	4978.434570
573.000000	-1576.000000	1650.765625	4987.371094
573.000000	-1576.000000	1649.764648	4898.875488
573.000000	-1576.000000	1648.763672	4947.787109
573.000000	-1576.000000	1647.762695	5109.046387
573.000000	-1576.000000	1646.761719	5117.946777
573.000000	-1576.000000	1645.759766	5066.938477
573.000000	-1576.000000	1644.757813	5250.528809
573.000000	-1576.000000	1643.755859	5276.857910
573.000000	-1576.000000	1642.753906	5467.808594
573.000000	-1576.000000	1641.750977	5536.476563
573.000000	-1576.000000	1640.749023	5520.339844
573.000000	-1576.000000	1639.746094	5561.545898
573.000000	-1576.000000	1638.742188	5490.579590
573.000000	-1576.000000	1637.739258	5628.953613
573.000000	-1576.000000	1636.735352	5473.299805
573.000000	-1576.000000	1635.732422	5350.091797
573.000000	-1576.000000	1634.728516	5396.269531
573.000000	-1576.000000	1633.723633	5098.852539
573.000000	-1576.000000	1632.719727	5182.400879
573.000000	-1576.000000	1631.714844	5119.084961
573.000000	-1576.000000	1630.709961	4993.593750
573.000000	-1576.000000	1629.705078	4977.607910
573.000000	-1576.000000	1628.700195	4909.401367
573.000000	-1576.000000	1627.694336	4796.466797
573.000000	-1576.000000	1626.689453	4879.971680
573.000000	-1576.000000	1625.683594	4886.392090
573.000000	-1576.000000	1624.676758	4795.897949
573.000000	-1576.000000	1623.670898	4876.865234
573.000000	-1576.000000	1622.664063	4843.539551
573.000000	-1576.000000	1621.657227	4867.345215
573.000000	-1576.000000	1620.650391	4687.549805
573.000000	-1576.000000	1619.643555	4676.625977
573.000000	-1576.000000	1618.635742	4588.771973
573.000000	-1576.000000	1617.628906	4701.935059
573.000000	-1576.000000	1616.621094	4691.014160
573.000000	-1576.000000	1615.613281	4737.142578
573.000000	-1576.000000	1614.604492	4790.689941
573.000000	-1576.000000	1613.596680	4737.611816
573.000000	-1576.000000	1612.587891	4615.155273
573.000000	-1576.000000	1611.579102	4723.211426
573.000000	-1576.000000	1610.569336	4685.045898
573.000000	-1576.000000	1609.560547	4731.115723
573.000000	-1576.000000	1608.550781	4772.212402
573.000000	-1576.000000	1607.541016	4736.536621
573.000000	-1576.000000	1606.531250	4747.909180
573.000000	-1576.000000	1605.521484	4868.172852
573.000000	-1576.000000	1604.510742	5005.706543
573.000000	-1576.000000	1603.500000	4863.634277
573.000000	-1576.000000	1602.489258	4800.769043
573.000000	-1576.000000	1601.478516	4903.609375
573.000000	-1576.000000	1600.467773	4741.869629
573.000000	-1576.000000	1599.456055	4728.504883
573.000000	-1576.000000	1598.444336	4769.513184
573.000000	-1576.000000	1597.432617	4751.206543
573.000000	-1576.000000	1596.419922	4787.251953
573.000000	-1576.000000	1595.408203	4805.994141
573.000000	-1576.000000	1594.395508	4592.627441
573.000000	-1576.000000	1593.382813	4628.683105
573.000000	-1576.000000	1592.370117	4667.191406
573.000000	-1576.000000	1591.356445	4762.437012
573.000000	-1576.000000	1590.343750	4680.014160
573.000000	-1576.000000	1589.330078	4526.096191
573.000000	-1576.000000	1588.316406	4764.339844
573.000000	-1576.000000	1587.301758	4699.226563
573.000000	-1576.000000	1586.288086	4890.497559
573.000000	-1576.000000	1585.273438	4763.773926
573.000000	-1576.000000	1584.258789	4725.804688
573.000000	-1576.000000	1583.244141	4754.363281
573.000000	-1576.000000	1582.228516	4701.634277
573.000000	-1576.000000	1581.213867	4666.164551
573.000000	-1576.000000	1580.198242	4702.102051
573.000000	-1576.000000	1579.182617	4728.179199
573.000000	-1576.000000	1578.166016	4840.373047
573.000000	-1576.000000	1577.150391	4777.839844
573.000000	-1576.000000	1576.133789	4754.688477
573.000000	-1576.000000	1575.117188	4800.405762
573.000000	-1576.000000	1574.100586	4676.452148
573.000000	-1576.000000	1573.083984	4857.365723
573.000000	-1576.000000	1572.066406	4703.960938
573.000000	-1576.000000	1571.048828	4720.163086
573.000000	-1576.000000	1570.031250	4773.207520
573.000000	-1576.000000	1569.013672	4843.421875
573.000000	-1576.000000	1567.995117	4871.861328
573.000000	-1576.000000	1566.976563	4765.260742
573.000000	-1576.000000	1565.958008	4786.340820
573.000000	-1576.000000	1564.939453	4586.550293
573.000000	-1576.000000	1563.920898	4632.193848
573.000000	-1576.000000	1562.901367	4812.730957
573.000000	-1576.000000	1561.881836	4848.496582
573.000000	-1576.000000	1560.862305	4827.852539
573.000000	-1576.000000	1559.842773	4819.474121
573.000000	-1576.000000	1558.822266	4857.666016
573.000000	-1576.000000	1557.802734	4807.627930
573.000000	-1576.000000	1556.782227	4877.653809
573.000000	-1576.000000	1555.761719	4798.240234
573.000000	-1576.000000	1554.740234	4709.064941
573.000000	-1576.000000	1553.719727	4854.962891
573.000000	-1576.000000	1552.698242	4885.753906
573.000000	-1576.000000	1551.676758	4838.219238
573.000000	-1576.000000	1550.654297	4869.000000
573.000000	-1576.000000	1549.632813	4907.106445
573.000000	-1576.000000	1548.610352	4918.293457
573.000000	-1576.000000	1547.587891	4883.017090
573.000000	-1576.000000	1546.565430	4923.539551
573.000000	-1576.000000	1545.542969	4866.279297
573.000000	-1576.000000	1544.519531	4875.020996
573.000000	-1576.000000	1543.496094	4803.136230
573.000000	-1576.000000	1542.472656	4875.394043
573.000000	-1576.000000	1541.449219	4801.097168
573.000000	-1576.000000	1540.424805	4941.687500
573.000000	-1576.000000	1539.400391	4967.489258
573.000000	-1576.000000	1538.375977	4807.801758
573.000000	-1576.000000	1537.351563	4911.700195
573.000000	-1576.000000	1536.327148	4815.518066
573.000000	-1576.000000	1535.301758	4858.396484
573.000000	-1576.000000	1534.276367	4725.688965
573.000000	-1576.000000	1533.250977	4788.071289
573.000000	-1576.000000	1532.225586	4867.488770
573.000000	-1576.000000	1531.199219	4966.366699
573.000000	-1576.000000	1530.173828	4955.566406
573.000000	-1576.000000	1529.147461	4954.513672
573.000000	-1576.000000	1528.121094	4775.682129
573.000000	-1576.000000	1527.093750	4806.319824
573.000000	-1576.000000	1526.067383	4851.550293
573.000000	-1576.000000	1525.040039	4928.400391
573.000000	-1576.000000	1524.012695	5007.650879
573.000000	-1576.000000	1522.984375	4865.487305
573.000000	-1576.000000	1521.957031	4852.291992
573.000000	-1576.000000	1520.928711	4805.058105
573.000000	-1576.000000	1519.900391	4818.624023
573.000000	-1576.000000	1518.872070	4837.044922
573.000000	-1576.000000	1517.842773	4872.469238
573.000000	-1576.000000	1516.814453	4803.403320
573.000000	-1576.000000	1515.785156	4901.976074
573.000000	-1576.000000	1514.755859	4988.363770
573.000000	-1576.000000	1513.725586	4946.025391
573.000000	-1576.000000	1512.696289	4864.863281
573.000000	-1576.000000	1511.666016	4977.900391
573.000000	-1576.000000	1510.635742	4935.590332
573.000000	-1576.000000	1509.605469	4983.061035
573.000000	-1576.000000	1508.574219	5083.872559
573.000000	-1576.000000	1507.543945	4949.416016
573.000000	-1576.000000	1506.512695	5045.342285
573.000000	-1576.000000	1505.481445	5036.996582
573.000000	-1576.000000	1504.449219	5147.403320
573.000000	-1576.000000	1503.417969	5139.039063
573.000000	-1576.000000	1502.385742	5004.712402
573.000000	-1576.000000	1501.353516	5105.366699
573.000000	-1576.000000	1500.321289	5111.543945
573.000000	-1576.000000	1499.288086	5062.038086
573.000000	-1576.000000	1498.255859	5063.380859
573.000000	-1576.000000	1497.222656	4984.867676
573.000000	-1576.000000	1496.189453	5165.255371
573.000000	-1576.000000	1495.155273	5069.821777
573.000000	-1576.000000	1494.122070	5124.362305
573.000000	-1576.000000	1493.087891	5265.919922
573.000000	-1576.000000	1492.053711	5163.272949
573.000000	-1576.000000	1491.018555	5154.922363
573.000000	-1576.000000	1489.984375	5250.473145
573.000000	-1576.000000	1488.949219	5167.219727
573.000000	-1576.000000	1487.914063	5255.480957
573.000000	-1576.000000	1486.878906	5329.216309
573.000000	-1576.000000	1485.843750	5361.878418
573.000000	-1576.000000	1484.807617	5266.602539
573.000000	-1576.000000	1483.771484	5234.108887
573.000000	-1576.000000	1482.735352	5324.672363
573.000000	-1576.000000	1481.699219	5335.597168
573.000000	-1576.000000	1480.662109	5319.989746
573.000000	-1576.000000	1479.625000	5229.644531
573.000000	-1576.000000	1478.587891	5370.752441
573.000000	-1576.000000	1477.550781	5338.275879
573.000000	-1576.000000	1476.513672	5503.395020
573.000000	-1576.000000	1475.475586	5632.308105
573.000000	-1576.000000	1474.437500	5638.331543
573.000000	-1576.000000	1473.399414	5627.495605
573.000000	-1576.000000	1472.361328	5700.926270
573.000000	-1576.000000	1471.322266	5743.034668
573.000000	-1576.000000	1470.283203	5722.556641
573.000000	-1576.000000	1469.244141	5889.750488
573.000000	-1576.000000	1468.205078	5910.141113
573.000000	-1576.000000	1467.166016	6017.100098
573.000000	-1576.000000	1466.125977	6063.902344
573.000000	-1576.000000	1465.085938	6144.338867
573.000000	-1576.000000	1464.045898	6022.856934
573.000000	-1576.000000	1463.004883	6204.187012
573.000000	-1576.000000	1461.964844	6137.997559
573.000000	-1576.000000	1460.923828	6312.019043
573.000000	-1576.000000	1459.882813	6226.623047
573.000000	-1576.000000	1458.841797	6347.732910
573.000000	-1576.000000	1457.799805	6343.975098
573.000000	-1576.000000	1456.757813	6253.826172
573.000000	-1576.000000	1455.715820	6317.268066
573.000000	-1576.000000	1454.673828	6234.358887
573.000000	-1576.000000	1453.631836	6357.733398
573.000000	-1576.000000	1452.588867	6406.725098
573.000000	-1576.000000	1451.545898	6355.012207
573.000000	-1576.000000	1450.502930	6341.667969
573.000000	-1576.000000	1449.458984	6359.479492
573.000000	-1576.000000	1448.416016	6470.714355
573.000000	-1576.000000	1447.372070	6306.457520
573.000000	-1576.000000	1446.328125	6432.022949
573.000000	-1576.000000	1445.284180	6394.732910
573.000000	-1576.000000	1444.239258	6302.405273
573.000000	-1576.000000	1443.194336	6238.833984
573.000000	-1576.000000	1442.150391	6242.281738
573.000000	-1576.000000	1441.104492	6042.400879
573.000000	-1576.000000	1440.059570	6189.382813
573.000000	-1576.000000	1439.013672	6082.849121
573.000000	-1576.000000	1437.967773	6036.124023
573.000000	-1576.000000	1436.921875	5951.178223
573.000000	-1576.000000	1435.875977	5940.343262
573.000000	-1576.000000	1434.829102	5991.626953
573.000000	-1576.000000	1433.783203	5901.966797
573.000000	-1576.000000	1432.735352	5886.372070
573.000000	-1576.000000	1431.688477	5928.083008
573.000000	-1576.000000	1430.641602	5840.879883
573.000000	-1576.000000	1429.593750	5951.788574
573.000000	-1576.000000	1428.545898	5845.529297
573.000000	-1576.000000	1427.498047	5908.679688
573.000000	-1576.000000	1426.449219	5945.568848
573.000000	-1576.000000	1425.401367	5889.450195
573.000000	-1576.000000	1424.352539	5940.629883
573.000000	-1576.000000	1423.303711	6032.304199
573.000000	-1576.000000	1422.253906	5902.333008
573.000000	-1576.000000	1421.205078	5860.564453
573.000000	-1576.000000	1420.155273	5945.049805
573.000000	-1576.000000	1419.105469	5948.533691
573.000000	-1576.000000	1418.055664	5911.541992
573.000000	-1576.000000	1417.004883	5867.424805
573.000000	-1576.000000	1415.955078	5949.454102
573.000000	-1576.000000	1414.904297	6029.068848
573.000000	-1576.000000	1413.852539	6025.392090
573.000000	-1576.000000	1412.801758	5993.177246
573.000000	-1576.000000	1411.750000	5987.131348
573.000000	-1576.000000	1410.698242	6047.649414
573.000000	-1576.000000	1409.646484	6024.956055
573.000000	-1576.000000	1408.594727	6128.210449
573.000000	-1576.000000	1407.541992	6293.187500
573.000000	-1576.000000	1406.490234	6279.955078
573.000000	-1576.000000	1405.437500	6245.355957
573.000000	-1576.000000	1404.383789	6251.131836
573.000000	-1576.000000	1403.331055	6297.256348
573.000000	-1576.000000	1402.277344	6288.778320
573.000000	-1576.000000	1401.223633	6216.243164
573.000000	-1576.000000	1400.169922	6058.343262
573.000000	-1576.000000	1399.115234	6177.986328
573.000000	-1576.000000	1398.061523	6138.715820
573.000000	-1576.000000	1397.006836	6025.973633
573.000000	-1576.000000	1395.952148	6003.341797
573.000000	-1576.000000	1394.896484	6032.849121
573.000000	-1576.000000	1393.841797	6062.342773
573.000000	-1576.000000	1392.786133	5952.081055
573.000000	-1576.000000	1391.730469	6038.410645
573.000000	-1576.000000	1390.673828	6018.165527
573.000000	-1576.000000	1389.618164	6019.231445
573.000000	-1576.000000	1388.561523	6107.855469
573.000000	-1576.000000	1387.504883	6075.776855
573.000000	-1576.000000	1386.448242	6107.578613
573.000000	-1576.000000	1385.390625	6106.256836
573.000000	-1576.000000	1384.333984	6057.646484
573.000000	-1576.000000	1383.276367	6001.965332
573.000000	-1576.000000	1382.217773	6017.209473
573.000000	-1576.000000	1381.160156	6079.704102
573.000000	-1576.000000	1380.101563	6061.850586
573.000000	-1576.000000	1379.042969	6095.965332
573.000000	-1576.000000	1377.984375	5936.433594
573.000000	-1576.000000	1376.925781	6081.519043
573.000000	-1576.000000	1375.866211	5995.228516
573.000000	-1576.000000	1374.807617	6121.358398
573.000000	-1576.000000	1373.747070	6065.767090
573.000000	-1576.000000	1372.687500	6050.298340
573.000000	-1576.000000	1371.627930	5975.878906
573.000000	-1576.000000	1370.567383	5948.646484
573.000000	-1576.000000	1369.506836	5928.497070
573.000000	-1576.000000	1368.446289	5993.198730
573.000000	-1576.000000	1367.384766	6128.558594
573.000000	-1576.000000	1366.323242	6061.267090
573.000000	-1576.000000	1365.261719	5925.703125
573.000000	-1576.000000	1364.200195	5907.932617
573.000000	-1576.000000	1363.138672	5960.794434
573.000000	-1576.000000	1362.076172	5858.290527
573.000000	-1576.000000	1361.013672	5904.079590
573.000000	-1576.000000	1359.951172	5902.795410
573.000000	-1576.000000	1358.888672	5852.116211
573.000000	-1576.000000	1357.825195	5775.590820
573.000000	-1576.000000	1356.761719	5927.156250
573.000000	-1576.000000	1355.698242	5897.658203
573.000000	-1576.000000	1354.634766	5948.076172
573.000000	-1576.000000	1353.570313	5986.723145
573.000000	-1576.000000	1352.506836	5889.107422
573.000000	-1576.000000	1351.442383	5988.811523
573.000000	-1576.000000	1350.376953	5891.236816
573.000000	-1576.000000	1349.312500	5967.420410
573.000000	-1576.000000	1348.247070	6113.981445
573.000000	-1576.000000	1347.181641	6098.568848
573.000000	-1576.000000	1346.116211	6076.124023
573.000000	-1576.000000	1345.049805	6215.527344
573.000000	-1576.000000	1343.984375	6010.158203
573.000000	-1576.000000	1342.917969	6313.625488
573.000000	-1576.000000	1341.851563	6340.374023
573.000000	-1576.000000	1340.784180	6097.615234
573.000000	-1576.000000	1339.716797	6213.428711
573.000000	-1576.000000	1338.650391	6207.386230
573.000000	-1576.000000	1337.582031	6067.857422
573.000000	-1576.000000	1336.514648	6033.750977
573.000000	-1576.000000	1335.446289	6222.041992
573.000000	-1576.000000	1334.378906	6194.937012
573.000000	-1576.000000	1333.310547	6198.261230
573.000000	-1576.000000	1332.241211	6257.727051
573.000000	-1576.000000	1331.172852	6324.183105
573.000000	-1576.000000	1330.103516	6236.280762
573.000000	-1576.000000	1329.034180	6216.212402
573.000000	-1576.000000	1327.964844	6217.187500
573.000000	-1576.000000	1326.894531	6281.254883
573.000000	-1576.000000	1325.824219	6216.798828
573.000000	-1576.000000	1324.753906	6194.414063
573.000000	-1576.000000	1323.683594	6300.476563
573.000000	-1576.000000	1322.612305	6343.454102
573.000000	-1576.000000	1321.541992	6260.364258
573.000000	-1576.000000	1320.470703	6326.667480
573.000000	-1576.000000	1319.399414	6178.287598
573.000000	-1576.000000	1318.327148	6295.897461
573.000000	-1576.000000	1317.254883	6184.902832
573.000000	-1576.000000	1316.182617	6169.553711
573.000000	-1576.000000	1315.110352	6100.594727
573.000000	-1576.000000	1314.038086	6316.001953
573.000000	-1576.000000	1312.964844	6188.787109
573.000000	-1576.000000	1311.891602	6115.208008
573.000000	-1576.000000	1310.818359	6267.582520
573.000000	-1576.000000	1309.745117	6201.002930
573.000000	-1576.000000	1308.670898	6208.950195
573.000000	-1576.000000	1307.596680	6296.029785
573.000000	-1576.000000	1306.522461	6283.007813
573.000000	-1576.000000	1305.448242	6290.929688
573.000000	-1576.000000	1304.373047	6184.872559
573.000000	-1576.000000	1303.297852	6185.834961
573.000000	-1576.000000	1302.222656	6321.645508
573.000000	-1576.000000	1301.147461	6434.150391
573.000000	-1576.000000	1300.071289	6367.659668
573.000000	-1576.000000	1298.996094	6208.259766
573.000000	-1576.000000	1297.919922	6239.410645
573.000000	-1576.000000	1296.842773	6238.033203
573.000000	-1576.000000	1295.766602	6264.518066
573.000000	-1576.000000	1294.689453	6284.026855
573.000000	-1576.000000	1293.612305	6303.525879
573.000000	-1576.000000	1292.535156	6436.714355
573.000000	-1576.000000	1291.457031	6393.533203
573.000000	-1576.000000	1290.378906	6424.590332
573.000000	-1576.000000	1289.300781	6386.067383
573.000000	-1576.000000	1288.222656	6456.521973
573.000000	-1576.000000	1287.144531	6434.232422
573.000000	-1576.000000	1286.065430	6576.479980
573.000000	-1576.000000	1284.986328	6412.848633
573.000000	-1576.000000	1283.907227	6647.687012
573.000000	-1576.000000	1282.827148	6653.161133
573.000000	-1576.000000	1281.748047	6533.608887
573.000000	-1576.000000	1280.667969	6564.565918
573.000000	-1576.000000	1279.586914	6600.137207
573.000000	-1576.000000	1278.506836	6635.691895
573.000000	-1576.000000	1277.425781	6581.015625
573.000000	-1576.000000	1276.344727	6771.506348
573.000000	-1576.000000	1275.263672	6665.955566
573.000000	-1576.000000	1274.182617	6826.290039
573.000000	-1576.000000	1273.100586	6748.505371
573.000000	-1576.000000	1272.018555	6832.498535
573.000000	-1576.000000	1270.936523	6724.714355
573.000000	-1576.000000	1269.853516	6847.936523
573.000000	-1576.000000	1268.771484	6941.084961
573.000000	-1576.000000	1267.688477	6835.654785
573.000000	-1576.000000	1266.605469	6914.915039
573.000000	-1576.000000	1265.521484	6855.686523
573.000000	-1576.000000	1264.438477	6810.326172
573.000000	-1576.000000	1263.354492	6838.792969
573.000000	-1576.000000	1262.270508	6818.820801
573.000000	-1576.000000	1261.185547	6817.300293
573.000000	-1576.000000	1260.101563	6735.106445
573.000000	-1576.000000	1259.016602	6871.870605
573.000000	-1576.000000	1257.930664	6690.629883
573.000000	-1576.000000	1256.845703	6732.901367
573.000000	-1576.000000	1255.759766	6957.083008
573.000000	-1576.000000	1254.674805	6934.807129
573.000000	-1576.000000	1253.587891	7043.747559
573.000000	-1576.000000	1252.501953	6952.419922
573.000000	-1576.000000	1251.415039	7031.395508
573.000000	-1576.000000	1250.329102	7165.542480
573.000000	-1576.000000	1249.241211	7069.646484
573.000000	-1576.000000	1248.154297	7097.955566
573.000000	-1576.000000	1247.066406	7082.573730
573.000000	-1576.000000	1245.979492	7122.356445
573.000000	-1576.000000	1244.890625	6934.642090
573.000000	-1576.000000	1243.802734	7041.058594
573.000000	-1576.000000	1242.713867	6972.875000
573.000000	-1576.000000	1241.625000	6989.681152
573.000000	-1576.000000	1240.536133	6988.113770
573.000000	-1576.000000	1239.447266	6901.623535
573.000000	-1576.000000	1238.357422	6916.137207
573.000000	-1576.000000	1237.267578	6864.112793
573.000000	-1576.000000	1236.177734	6901.562988
573.000000	-1576.000000	1235.087891	7023.841309
573.000000	-1576.000000	1233.997070	6875.535645
573.000000	-1576.000000	1232.906250	7002.347168
573.000000	-1576.000000	1231.815430	6780.780762
573.000000	-1576.000000	1230.724609	6983.159668
573.000000	-1576.000000	1229.632813	6812.087891
573.000000	-1576.000000	1228.541016	6789.943848
573.000000	-1576.000000	1227.449219	6561.752930
573.000000	-1576.000000	1226.357422	6681.591797
573.000000	-1576.000000	1225.264648	6714.413086
573.000000	-1576.000000	1224.171875	6779.250977
573.000000	-1576.000000	1223.079102	6624.462891
573.000000	-1576.000000	1221.986328	6746.462891
573.000000	-1576.000000	1220.892578	6754.086426
573.000000	-1576.000000	1219.798828	6738.846191
573.000000	-1576.000000	1218.705078	6511.071289
573.000000	-1576.000000	1217.611328	6594.140625
573.000000	-1576.000000	1216.516602	6608.641113
573.000000	-1576.000000	1215.421875	6582.025391
573.000000	-1576.000000	1214.327148	6774.619141
573.000000	-1576.000000	1213.231445	6611.007813
573.000000	-1576.000000	1212.136719	6550.172363
573.000000	-1576.000000	1211.041016	6660.496582
573.000000	-1576.000000	1209.945313	6711.457520
573.000000	-1576.000000	1208.848633	6769.236328
573.000000	-1576.000000	1207.752930	6710.697266
573.000000	-1576.000000	1206.656250	6633.945801
573.000000	-1576.000000	1205.558594	6712.213379
573.000000	-1576.000000	1204.461914	6692.461426
573.000000	-1576.000000	1203.364258	6702.333496
573.000000	-1576.000000	1202.266602	6744.087402
573.000000	-1576.000000	1201.168945	6763.050293
573.000000	-1576.000000	1200.071289	6695.492676
573.000000	-1576.000000	1198.972656	6639.345215
573.000000	-1576.000000	1197.874023	6599.151367
573.000000	-1576.000000	1196.775391	6588.550781
573.000000	-1576.000000	1195.675781	6653.013184
573.000000	-1576.000000	1194.576172	6637.855469
573.000000	-1576.000000	1193.476563	6634.070801
573.000000	-1576.000000	1192.376953	6562.098145
573.000000	-1576.000000	1191.276367	6540.150879
573.000000	-1576.000000	1190.176758	6624.994629
573.000000	-1576.000000	1189.076172	6773.398926
573.000000	-1576.000000	1187.974609	6681.017578
573.000000	-1576.000000	1186.874023	6663.601074
573.000000	-1576.000000	1185.772461	6698.398438
573.000000	-1576.000000	1184.670898	6753.603027
573.000000	-1576.000000	1183.569336	6649.963379
573.000000	-1576.000000	1182.466797	6657.517090
573.000000	-1576.000000	1181.364258	6755.778809
573.000000	-1576.000000	1180.261719	6656.741211
573.000000	-1576.000000	1179.159180	6795.758301
573.000000	-1576.000000	1178.055664	6868.989746
573.000000	-1576.000000	1176.952148	6692.956543
573.000000	-1576.000000	1175.848633	6720.872070
573.000000	-1576.000000	1174.745117	6846.155273
573.000000	-1576.000000	1173.640625	6792.510742
573.000000	-1576.000000	1172.536133	6684.562500
573.000000	-1576.000000	1171.431641	6769.028809
573.000000	-1576.000000	1170.326172	6697.334961
573.000000	-1576.000000	1169.221680	6799.854492
573.000000	-1576.000000	1168.116211	6796.032227
573.000000	-1576.000000	1167.010742	6708.551270
573.000000	-1576.000000	1165.904297	6921.761230
573.000000	-1576.000000	1164.797852	6969.890625
573.000000	-1576.000000	1163.691406	6936.655762
573.000000	-1576.000000	1162.584961	6851.478027
573.000000	-1576.000000	1161.478516	6818.283203
573.000000	-1576.000000	1160.371094	6843.809570
573.000000	-1576.000000	1159.263672	6830.946777
573.000000	-1576.000000	1158.155273	7003.154297
573.000000	-1576.000000	1157.047852	6784.928223
573.000000	-1576.000000	1155.939453	6756.293945
573.000000	-1576.000000	1154.831055	6689.331543
573.000000	-1576.000000	1153.722656	6834.351563
573.000000	-1576.000000	1152.613281	6765.145508
573.000000	-1576.000000	1151.503906	6835.704590
573.000000	-1576.000000	1150.394531	6732.729004
573.000000	-1576.000000	1149.285156	6866.337891
573.000000	-1576.000000	1148.174805	6635.024902
573.000000	-1576.000000	1147.064453	6784.354492
573.000000	-1576.000000	1145.954102	6742.263672
573.000000	-1576.000000	1144.842773	6742.954590
573.000000	-1576.000000	1143.732422	6849.399902
573.000000	-1576.000000	1142.621094	6915.301758
573.000000	-1576.000000	1141.508789	6868.718262
573.000000	-1576.000000	1140.397461	6768.189453
573.000000	-1576.000000	1139.285156	6791.348633
573.000000	-1576.000000	1138.172852	6758.308105
573.000000	-1576.000000	1137.060547	6806.173828
573.000000	-1576.000000	1135.947266	6930.396973
573.000000	-1576.000000	1134.834961	6904.082520
573.000000	-1576.000000	1133.720703	7048.432129
573.000000	-1576.000000	1132.607422	6858.220703
573.000000	-1576.000000	1131.493164	6820.716309
573.000000	-1576.000000	1130.379883	6922.347656
573.000000	-1576.000000	1129.264648	7053.094727
573.000000	-1576.000000	1128.150391	6968.468750
573.000000	-1576.000000	1127.035156	6971.330566
573.000000	-1576.000000	1125.919922	6891.244141
573.000000	-1576.000000	1124.804688	7051.008789
573.000000	-1576.000000	1123.689453	6926.124512
573.000000	-1576.000000	1122.573242	7054.441406
573.000000	-1576.000000	1121.457031	7025.919434
573.000000	-1576.000000	1120.340820	7051.149414
573.000000	-1576.000000	1119.223633	7080.843750
573.000000	-1576.000000	1118.106445	6808.376465
573.000000	-1576.000000	1116.989258	6976.843262
573.000000	-1576.000000	1115.872070	6995.345703
573.000000	-1576.000000	1114.753906	7074.225586
573.000000	-1576.000000	1113.635742	6998.781250
573.000000	-1576.000000	1112.517578	7030.675293
573.000000	-1576.000000	1111.399414	7096.078613
573.000000	-1576.000000	1110.280273	7239.656250
573.000000	-1576.000000	1109.161133	7215.620117
573.000000	-1576.000000	1108.041992	7120.124512
573.000000	-1576.000000	1106.921875	7323.880371
573.000000	-1576.000000	1105.802734	7353.415039
573.000000	-1576.000000	1104.682617	7333.833984
573.000000	-1576.000000	1103.561523	7448.140137
573.000000	-1576.000000	1102.441406	7238.926270
573.000000	-1576.000000	1101.320313	7404.495117
573.000000	-1576.000000	1100.199219	7418.362305
573.000000	-1576.000000	1099.077148	7389.866211
573.000000	-1576.000000	1097.956055	7519.620117
573.000000	-1576.000000	1096.833984	7444.320313
573.000000	-1576.000000	1095.711914	7484.892090
573.000000	-1576.000000	1094.588867	7598.938477
573.000000	-1576.000000	1093.465820	7601.600586
573.000000	-1576.000000	1092.342773	7568.643066
573.000000	-1576.000000	1091.219727	7678.134277
573.000000	-1576.000000	1090.096680	7763.098145
573.000000	-1576.000000	1088.972656	7756.815918
573.000000	-1576.000000	1087.848633	7826.150391
573.000000	-1576.000000	1086.723633	7879.887207
573.000000	-1576.000000	1085.599609	7953.603027
573.000000	-1576.000000	1084.474609	8036.172852
573.000000	-1576.000000	1083.349609	8205.355469
573.000000	-1576.000000	1082.223633	8125.665527
573.000000	-1576.000000	1081.097656	8390.239258
573.000000	-1576.000000	1079.971680	8437.097656
573.000000	-1576.000000	1078.845703	8410.680664
573.000000	-1576.000000	1077.719727	8530.744141
573.000000	-1576.000000	1076.592773	8584.187500
573.000000	-1576.000000	1075.465820	8815.059570
573.000000	-1576.000000	1074.337891	8839.578125
573.000000	-1576.000000	1073.210938	8755.445313
573.000000	-1576.000000	1072.083008	8760.013672
573.000000	-1576.000000	1070.954102	8782.308594
573.000000	-1576.000000	1069.826172	8711.537109
573.000000	-1576.000000	1068.697266	8818.000000
573.000000	-1576.000000	1067.568359	8609.953125
573.000000	-1576.000000	1066.439453	8510.488281
573.000000	-1576.000000	1065.309570	8590.357422
573.000000	-1576.000000	1064.180664	8431.193359
573.000000	-1576.000000	1063.049805	8325.201172
573.000000	-1576.000000	1061.919922	8336.486328
573.000000	-1576.000000	1060.789063	8228.352539
573.000000	-1576.000000	1059.658203	8226.387695
573.000000	-1576.000000	1058.527344	8038.759766
573.000000	-1576.000000	1057.396484	8010.321777
573.000000	-1576.000000	1056.264648	7836.087402
573.000000	-1576.000000	1055.132813	7891.639160
573.000000	-1576.000000	1054.000000	7891.958984
573.000000	-1576.000000	1052.868164	7969.543945
573.000000	-1576.000000	1051.735352	7936.735840
573.000000	-1576.000000	1050.602539	7837.744629
573.000000	-1576.000000	1049.468750	7919.695801
573.000000	-1576.000000	1048.335938	7911.179688
573.000000	-1576.000000	1047.202148	7790.212402
573.000000	-1576.000000	1046.067383	7958.085449
573.000000	-1576.000000	1044.933594	8037.719727
573.000000	-1576.000000	1043.798828	8002.737793
573.000000	-1576.000000	1042.664063	7969.974121
573.000000	-1576.000000	1041.528320	8089.186035
573.000000	-1576.000000	1040.393555	7952.929688
573.000000	-1576.000000	1039.257813	8166.740723
573.000000	-1576.000000	1038.122070	8263.807617
573.000000	-1576.000000	1036.985352	8081.399414
573.000000	-1576.000000	1035.848633	8189.436035
573.000000	-1576.000000	1034.711914	8515.135742
573.000000	-1576.000000	1033.575195	8255.842773
573.000000	-1576.000000	1032.437500	8348.368164
573.000000	-1576.000000	1031.299805	8326.574219
573.000000	-1576.000000	1030.162109	8324.563477
573.000000	-1576.000000	1029.023438	8214.922852
573.000000	-1576.000000	1027.885742	8032.867188
573.000000	-1576.000000	1026.747070	8243.881836
573.000000	-1576.000000	1025.607422	8147.505859
573.000000	-1576.000000	1024.468750	8191.615723
573.000000	-1576.000000	1023.329102	8165.499023
573.000000	-1576.000000	1022.189453	8238.093750
573.000000	-1576.000000	1021.048828	8115.493164
573.000000	-1576.000000	1019.908203	8163.946777
573.000000	-1576.000000	1018.767578	7964.710938
573.000000	-1576.000000	1017.626953	7984.689453
573.000000	-1576.000000	1016.485352	8094.473633
573.000000	-1576.000000	1015.344727	7851.593262
573.000000	-1576.000000	1014.202148	7976.680664
573.000000	-1576.000000	1013.060547	8025.089355
573.000000	-1576.000000	1011.917969	7907.145020
573.000000	-1576.000000	1010.775391	7922.724121
573.000000	-1576.000000	1009.632813	7892.357422
573.000000	-1576.000000	1008.489258	8015.089355
573.000000	-1576.000000	1007.345703	8028.440430
573.000000	-1576.000000	1006.202148	8417.751953
573.000000	-1576.000000	1005.058594	8420.068359
573.000000	-1576.000000	1003.914063	8695.482422
573.000000	-1576.000000	1002.769531	8660.594727
573.000000	-1576.000000	1001.625000	8398.615234
573.000000	-1576.000000	1000.479492	8477.340820
573.000000	-1576.000000	999.333984	8267.915039
573.000000	-1576.000000	998.188477	8134.964355
573.000000	-1576.000000	997.042969	8180.968262
573.000000	-1576.000000	995.896484	8170.240723
573.000000	-1576.000000	994.750000	8115.906250
573.000000	-1576.000000	993.603516	8031.077148
573.000000	-1576.000000	992.456055	8162.054688
573.000000	-1576.000000	991.308594	8000.990723
573.000000	-1576.000000	990.161133	8162.405762
573.000000	-1576.000000	989.012695	8110.310547
573.000000	-1576.000000	987.865234	8143.155273
573.000000	-1576.000000	986.716797	8247.815430
573.000000	-1576.000000	985.567383	8136.975098
573.000000	-1576.000000	984.418945	8119.743164
573.000000	-1576.000000	983.269531	8320.035156
573.000000	-1576.000000	982.119141	8283.192383
573.000000	-1576.000000	980.969727	8333.330078
573.000000	-1576.000000	979.819336	8444.300781
573.000000	-1576.000000	978.668945	8611.714844
573.000000	-1576.000000	977.518555	8729.077148
573.000000	-1576.000000	976.367188	8991.901367
573.000000	-1576.000000	975.215820	9050.480469
573.000000	-1576.000000	974.064453	9551.888672
573.000000	-1576.000000	972.912109	9951.041992
573.000000	-1576.000000	971.760742	10434.618164
573.000000	-1576.000000	970.607422	10907.107422
573.000000	-1576.000000	969.455078	11735.033203
573.000000	-1576.000000	968.301758	12486.660156
573.000000	-1576.000000	967.148438	13389.649414
573.000000	-1576.000000	965.995117	14352.867188
573.000000	-1576.000000	964.840820	15272.273438
573.000000	-1576.000000	963.687500	16280.028320
573.000000	-1576.000000	962.532227	17098.880859
573.000000	-1576.000000	961.377930	17588.248047
573.000000	-1576.000000	960.222656	17698.591797
573.000000	-1576.000000	959.067383	17904.089844
573.000000	-1576.000000	957.912109	17575.132813
573.000000	-1576.000000	956.755859	16954.355469
573.000000	-1576.000000	955.599609	16143.602539
573.000000	-1576.000000	954.443359	15080.326172
573.000000	-1576.000000	953.286133	14493.042969
573.000000	-1576.000000	952.129883	13588.430664
573.000000	-1576.000000	950.972656	12988.845703
573.000000	-1576.000000	949.814453	12527.771484
573.000000	-1576.000000	948.656250	11909.314453
573.000000	-1576.000000	947.498047	11412.040039
573.000000	-1576.000000	946.339844	10923.644531
573.000000	-1576.000000	945.180664	10577.881836
573.000000	-1576.000000	944.022461	10333.663086
573.000000	-1576.000000	942.862305	9936.463867
573.000000	-1576.000000	941.703125	10007.273438
573.000000	-1576.000000	940.542969	9584.488281
573.000000	-1576.000000	939.382813	9668.274414
573.000000	-1576.000000	938.222656	9170.386719
573.000000	-1576.000000	937.061523	9241.309570
573.000000	-1576.000000	935.900391	9017.218750
573.000000	-1576.000000	934.739258	9163.481445
573.000000	-1576.000000	933.577148	8842.678711
573.000000	-1576.000000	932.415039	8911.455078
573.000000	-1576.000000	931.252930	8655.401367
573.000000	-1576.000000	930.090820	8668.276367
573.000000	-1576.000000	928.927734	8509.153320
573.000000	-1576.000000	927.764648	8461.875000
573.000000	-1576.000000	926.600586	8390.980469
573.000000	-1576.000000	925.437500	8384.568359
573.000000	-1576.000000	924.273438	8461.917969
573.000000	-1576.000000	923.108398	8367.455078
573.000000	-1576.000000	921.944336	8333.142578
573.000000	-1576.000000	920.779297	8268.800781
573.000000	-1576.000000	919.614258	8174.453125
573.000000	-1576.000000	918.448242	8185.255859
573.000000	-1576.000000	917.283203	8344.017578
573.000000	-1576.000000	916.116211	8170.393555
573.000000	-1576.000000	914.950195	8279.778320
573.000000	-1576.000000	913.783203	8277.680664
573.000000	-1576.000000	912.616211	8082.777832
573.000000	-1576.000000	911.449219	8132.128906
573.000000	-1576.000000	910.282227	8016.582520
573.000000	-1576.000000	909.114258	8025.250000
573.000000	-1576.000000	907.945313	7971.849121
573.000000	-1576.000000	906.777344	8198.754883
573.000000	-1576.000000	905.608398	7952.823242
573.000000	-1576.000000	904.439453	8102.630859
573.000000	-1576.000000	903.270508	8068.499512
573.000000	-1576.000000	902.100586	8130.565918
573.000000	-1576.000000	900.930664	7966.095215
573.000000	-1576.000000	899.759766	7983.291016
573.000000	-1576.000000	898.589844	8058.141602
573.000000	-1576.000000	897.418945	8041.138672
573.000000	-1576.000000	896.248047	8043.354980
573.000000	-1576.000000	895.076172	8019.959473
573.000000	-1576.000000	893.904297	7870.694336
573.000000	-1576.000000	892.732422	7919.874023
573.000000	-1576.000000	891.559570	8171.611328
573.000000	-1576.000000	890.387695	7998.966309
573.000000	-1576.000000	889.214844	8007.574707
573.000000	-1576.000000	888.041016	8088.625488
573.000000	-1576.000000	886.867188	8122.767090
573.000000	-1576.000000	885.693359	8063.180664
573.000000	-1576.000000	884.519531	8090.920410
573.000000	-1576.000000	883.344727	8235.719727
573.000000	-1576.000000	882.169922	8169.761230
573.000000	-1576.000000	880.995117	8163.406738
573.000000	-1576.000000	879.820313	8233.625977
573.000000	-1576.000000	878.644531	8176.219727
573.000000	-1576.000000	877.468750	8137.975098
573.000000	-1576.000000	876.291992	8303.783203
573.000000	-1576.000000	875.115234	8138.032715
573.000000	-1576.000000	873.938477	8099.822754
573.000000	-1576.000000	872.761719	8095.609863
573.000000	-1576.000000	871.583984	8131.737793
573.000000	-1576.000000	870.406250	8240.014648
573.000000	-1576.000000	869.228516	8133.904785
573.000000	-1576.000000	868.049805	8080.886230
573.000000	-1576.000000	866.871094	8225.144531
573.000000	-1576.000000	865.692383	8259.063477
573.000000	-1576.000000	864.512695	8227.248047
573.000000	-1576.000000	863.333008	8068.287109
573.000000	-1576.000000	862.153320	8127.641113
573.000000	-1576.000000	860.972656	8280.165039
573.000000	-1576.000000	859.791992	8258.958008
573.000000	-1576.000000	858.611328	8358.437500
573.000000	-1576.000000	857.430664	8349.917969
573.000000	-1576.000000	856.249023	8332.936523
573.000000	-1576.000000	855.067383	8347.695313
573.000000	-1576.000000	853.884766	8343.409180
573.000000	-1576.000000	852.703125	8525.190430
573.000000	-1576.000000	851.519531	8351.750977
573.000000	-1576.000000	850.336914	8262.930664
573.000000	-1576.000000	849.153320	8180.494141
573.000000	-1576.000000	847.969727	8288.195313
573.000000	-1576.000000	846.786133	8239.577148
573.000000	-1576.000000	845.601563	8100.207031
573.000000	-1576.000000	844.416992	8294.371094
573.000000	-1576.000000	843.232422	8302.754883
573.000000	-1576.000000	842.046875	8384.960938
573.000000	-1576.000000	840.862305	8446.035156
573.000000	-1576.000000	839.675781	8545.024414
573.000000	-1576.000000	838.490234	8726.163086
573.000000	-1576.000000	837.303711	9514.083984
573.000000	-1576.000000	836.117188	9536.871094
573.000000	-1576.000000	834.929688	8635.060547
573.000000	-1576.000000	833.742188	8603.318359
573.000000	-1576.000000	832.554688	8531.594727
573.000000	-1576.000000	831.367188	8411.504883
573.000000	-1576.000000	830.178711	8363.008789
573.000000	-1576.000000	828.990234	8285.090820
573.000000	-1576.000000	827.800781	8181.977051
573.000000	-1576.000000	826.612305	8335.390625
573.000000	-1576.000000	825.422852	8146.145508
573.000000	-1576.000000	824.232422	8116.685059
573.000000	-1576.000000	823.042969	8036.824219
573.000000	-1576.000000	821.851563	8001.104492
573.000000	-1576.000000	820.661133	8110.265625
573.000000	-1576.000000	819.469727	8066.146484
573.000000	-1576.000000	818.278320	8179.426270
573.000000	-1576.000000	817.086914	8380.752930
573.000000	-1576.000000	815.895508	8315.619141
573.000000	-1576.000000	814.703125	8237.938477
573.000000	-1576.000000	813.509766	8466.334961
573.000000	-1576.000000	812.317383	8539.534180
573.000000	-1576.000000	811.124023	8495.371094
573.000000	-1576.000000	809.929688	8465.890625
573.000000	-1576.000000	808.736328	8417.579102
573.000000	-1576.000000	807.541992	8170.421387
573.000000	-1576.000000	806.347656	8172.437988
573.000000	-1576.000000	805.152344	8149.344727
573.000000	-1576.000000	803.957031	7931.733398
573.000000	-1576.000000	802.761719	7858.525391
573.000000	-1576.000000	801.566406	7804.169922
573.000000	-1576.000000	800.370117	7925.404785
573.000000	-1576.000000	799.172852	7735.241211
573.000000	-1576.000000	797.976563	7908.648926
573.000000	-1576.000000	796.779297	7877.303711
573.000000	-1576.000000	795.582031	7820.919434
573.000000	-1576.000000	794.383789	7760.389160
573.000000	-1576.000000	793.186523	7720.756348
573.000000	-1576.000000	791.987305	7812.569824
573.000000	-1576.000000	790.789063	7756.256348
573.000000	-1576.000000	789.589844	7843.837891
573.000000	-1576.000000	788.390625	7808.387207
573.000000	-1576.000000	787.191406	7810.464355
573.000000	-1576.000000	785.991211	7731.288574
573.000000	-1576.000000	784.791016	7781.286133
573.000000	-1576.000000	783.589844	7789.610840
573.000000	-1576.000000	782.388672	7916.583984
573.000000	-1576.000000	781.187500	7712.591309
573.000000	-1576.000000	779.986328	7770.855957
573.000000	-1576.000000	778.784180	7804.127441
573.000000	-1576.000000	777.582031	7878.968262
573.000000	-1576.000000	776.379883	7876.848633
573.000000	-1576.000000	775.176758	7860.180176
573.000000	-1576.000000	773.973633	7797.808594
573.000000	-1576.000000	772.769531	7764.549805
573.000000	-1576.000000	771.566406	7772.839355
573.000000	-1576.000000	770.361328	7835.101074
573.000000	-1576.000000	769.157227	7785.250000
573.000000	-1576.000000	767.952148	7729.199219
573.000000	-1576.000000	766.747070	7859.872070
573.000000	-1576.000000	765.541992	7758.203613
573.000000	-1576.000000	764.335938	7787.204102
573.000000	-1576.000000	763.129883	7853.496582
573.000000	-1576.000000	761.922852	7710.464355
573.000000	-1576.000000	760.716797	7907.248047
573.000000	-1576.000000	759.509766	7865.755371
573.000000	-1576.000000	758.301758	7801.508301
573.000000	-1576.000000	757.093750	7782.832520
573.000000	-1576.000000	755.885742	7886.256348
573.000000	-1576.000000	754.677734	7724.818359
573.000000	-1576.000000	753.468750	7739.264648
573.000000	-1576.000000	752.259766	7654.454102
573.000000	-1576.000000	751.049805	7697.847656
573.000000	-1576.000000	749.840820	7803.211914
573.000000	-1576.000000	748.629883	7621.348145
573.000000	-1576.000000	747.419922	7701.887207
573.000000	-1576.000000	746.208984	7809.224121
573.000000	-1576.000000	744.998047	7697.687500
573.000000	-1576.000000	743.787109	7714.159668
573.000000	-1576.000000	742.575195	7796.642578
573.000000	-1576.000000	741.363281	7738.822266
573.000000	-1576.000000	740.150391	7687.218262
573.000000	-1576.000000	738.937500	7839.725098
573.000000	-1576.000000	737.724609	7738.656738
573.000000	-1576.000000	736.511719	7831.312988
573.000000	-1576.000000	735.297852	7645.848633
573.000000	-1576.000000	734.083984	7894.975586
573.000000	-1576.000000	732.869141	7773.409180
573.000000	-1576.000000	731.654297	7682.779297
573.000000	-1576.000000	730.439453	7789.717773
573.000000	-1576.000000	729.223633	7787.578125
573.000000	-1576.000000	728.007813	7886.200195
573.000000	-1576.000000	726.791992	7787.408691
573.000000	-1576.000000	725.576172	7651.675293
573.000000	-1576.000000	724.359375	7721.482422
573.000000	-1476.000000	1819.745117	3338.878418
573.000000	-1476.000000	1818.780273	3385.539795
573.000000	-1476.000000	1817.815430	3467.734619
573.000000	-1476.000000	1816.850586	3420.335205
573.000000	-1476.000000	1815.885742	3396.272217
573.000000	-1476.000000	1814.920898	3330.779053
573.000000	-1476.000000	1813.955078	3358.535400
573.000000	-1476.000000	1812.989258	3370.746094
573.000000	-1476.000000	1812.023438	3476.131592
573.000000	-1476.000000	1811.057617	3477.960205
573.000000	-1476.000000	1810.091797	3360.776855
573.000000	-1476.000000	1809.125000	3429.882813
573.000000	-1476.000000	1808.158203	3364.482422
573.000000	-1476.000000	1807.191406	3420.629883
573.000000	-1476.000000	1806.223633	3450.903320
573.000000	-1476.000000	1805.256836	3385.541260
573.000000	-1476.000000	1804.289063	3340.878418
573.000000	-1476.000000	1803.321289	3451.230469
573.000000	-1476.000000	1802.353516	3517.628418
573.000000	-1476.000000	1801.384766	3594.326172
573.000000	-1476.000000	1800.416992	3446.394287
573.000000	-1476.000000	1799.448242	3481.778076
573.000000	-1476.000000	1798.479492	3597.140137
573.000000	-1476.000000	1797.510742	3467.363281
573.000000	-1476.000000	1796.541016	3471.767578
573.000000	-1476.000000	1795.571289	3543.217773
573.000000	-1476.000000	1794.601563	3606.902344
573.000000	-1476.000000	1793.631836	3497.857422
573.000000	-1476.000000	1792.662109	3491.943115
573.000000	-1476.000000	1791.691406	3496.337402
573.000000	-1476.000000	1790.721680	3508.457764
573.000000	-1476.000000	1789.750977	3572.080566
573.000000	-1476.000000	1788.779297	3530.107666
573.000000	-1476.000000	1787.808594	3431.518555
573.000000	-1476.000000	1786.836914	3453.937256
573.000000	-1476.000000	1785.865234	3597.285156
573.000000	-1476.000000	1784.893555	3539.907227
573.000000	-1476.000000	1783.921875	3554.571777
573.000000	-1476.000000	1782.949219	3605.230957
573.000000	-1476.000000	1781.977539	3555.601563
573.000000	-1476.000000	1781.004883	3621.660645
573.000000	-1476.000000	1780.031250	3551.490723
573.000000	-1476.000000	1779.058594	3650.922607
573.000000	-1476.000000	1778.084961	3565.364502
573.000000	-1476.000000	1777.112305	3523.501953
573.000000	-1476.000000	1776.138672	3633.145752
573.000000	-1476.000000	1775.164063	3601.554688
573.000000	-1476.000000	1774.190430	3636.706055
573.000000	-1476.000000	1773.215820	3625.655518
573.000000	-1476.000000	1772.241211	3701.832275
573.000000	-1476.000000	1771.266602	3590.744629
573.000000	-1476.000000	1770.291992	3625.867920
573.000000	-1476.000000	1769.316406	3658.412109
573.000000	-1476.000000	1768.340820	3631.989990
573.000000	-1476.000000	1767.365234	3641.455566
573.000000	-1476.000000	1766.389648	3684.223389
573.000000	-1476.000000	1765.414063	3639.882324
573.000000	-1476.000000	1764.437500	3705.680664
573.000000	-1476.000000	1763.460938	3645.991699
573.000000	-1476.000000	1762.484375	3714.320068
573.000000	-1476.000000	1761.507813	3762.144775
573.000000	-1476.000000	1760.531250	3630.837646
573.000000	-1476.000000	1759.553711	3842.383057
573.000000	-1476.000000	1758.576172	3767.383057
573.000000	-1476.000000	1757.598633	3720.543213
573.000000	-1476.000000	1756.620117	3811.775879
573.000000	-1476.000000	1755.642578	3790.506348
573.000000	-1476.000000	1754.664063	3828.020508
573.000000	-1476.000000	1753.685547	3776.098389
573.000000	-1476.000000	1752.707031	3772.730469
573.000000	-1476.000000	1751.727539	3825.546875
573.000000	-1476.000000	1750.749023	3852.808350
573.000000	-1476.000000	1749.769531	3818.793945
573.000000	-1476.000000	1748.790039	3807.763184
573.000000	-1476.000000	1747.809570	3789.082520
573.000000	-1476.000000	1746.830078	3816.328369
573.000000	-1476.000000	1745.849609	3787.451904
573.000000	-1476.000000	1744.869141	3814.686279
573.000000	-1476.000000	1743.888672	3801.118896
573.000000	-1476.000000	1742.908203	3713.641357
573.000000	-1476.000000	1741.926758	3804.580811
573.000000	-1476.000000	1740.945313	3908.219727
573.000000	-1476.000000	1739.963867	3818.228271
573.000000	-1476.000000	1738.982422	3924.366455
573.000000	-1476.000000	1738.000000	3786.034424
573.000000	-1476.000000	1737.018555	4042.320801
573.000000	-1476.000000	1736.036133	3937.107666
573.000000	-1476.000000	1735.053711	3979.517822
573.000000	-1476.000000	1734.070313	4019.365723
573.000000	-1476.000000	1733.087891	3944.745361
573.000000	-1476.000000	1732.104492	3974.412354
573.000000	-1476.000000	1731.121094	3988.812988
573.000000	-1476.000000	1730.137695	4084.542236
573.000000	-1476.000000	1729.154297	4126.865723
573.000000	-1476.000000	1728.169922	4146.305664
573.000000	-1476.000000	1727.185547	4104.774902
573.000000	-1476.000000	1726.201172	4169.922852
573.000000	-1476.000000	1725.216797	4255.354492
573.000000	-1476.000000	1724.231445	4226.519043
573.000000	-1476.000000	1723.247070	4136.786621
573.000000	-1476.000000	1722.261719	4333.813965
573.000000	-1476.000000	1721.276367	4264.391602
573.000000	-1476.000000	1720.290039	4319.275879
573.000000	-1476.000000	1719.304688	4216.921387
573.000000	-1476.000000	1718.318359	4238.834961
573.000000	-1476.000000	1717.332031	4248.065430
573.000000	-1476.000000	1716.345703	4249.689941
573.000000	-1476.000000	1715.358398	4236.112305
573.000000	-1476.000000	1714.372070	4235.205566
573.000000	-1476.000000	1713.384766	4419.169922
573.000000	-1476.000000	1712.397461	4240.988770
573.000000	-1476.000000	1711.409180	4212.236328
573.000000	-1476.000000	1710.421875	4358.124512
573.000000	-1476.000000	1709.433594	4415.389160
573.000000	-1476.000000	1708.445313	4371.438965
573.000000	-1476.000000	1707.457031	4345.211914
573.000000	-1476.000000	1706.468750	4485.889160
573.000000	-1476.000000	1705.479492	4477.345703
573.000000	-1476.000000	1704.490234	4418.253418
573.000000	-1476.000000	1703.500977	4475.431641
573.000000	-1476.000000	1702.511719	4477.001953
573.000000	-1476.000000	1701.521484	4559.402832
573.000000	-1476.000000	1700.532227	4636.717285
573.000000	-1476.000000	1699.541992	4572.604492
573.000000	-1476.000000	1698.551758	4665.029297
573.000000	-1476.000000	1697.560547	4552.984375
573.000000	-1476.000000	1696.570313	4700.886230
573.000000	-1476.000000	1695.579102	4712.496094
573.000000	-1476.000000	1694.587891	4648.435059
573.000000	-1476.000000	1693.596680	4753.353027
573.000000	-1476.000000	1692.604492	4845.620117
573.000000	-1476.000000	1691.613281	4786.612305
573.000000	-1476.000000	1690.621094	4921.674316
573.000000	-1476.000000	1689.628906	4839.999512
573.000000	-1476.000000	1688.636719	4763.397461
573.000000	-1476.000000	1687.643555	4926.080566
573.000000	-1476.000000	1686.650391	4799.134277
573.000000	-1476.000000	1685.657227	5034.743652
573.000000	-1476.000000	1684.664063	4990.883789
573.000000	-1476.000000	1683.670898	4826.260254
573.000000	-1476.000000	1682.676758	5106.997070
573.000000	-1476.000000	1681.683594	5088.301758
573.000000	-1476.000000	1680.689453	5079.672852
573.000000	-1476.000000	1679.694336	5113.788574
573.000000	-1476.000000	1678.700195	5140.348633
573.000000	-1476.000000	1677.705078	5018.625488
573.000000	-1476.000000	1676.709961	5067.807129
573.000000	-1476.000000	1675.714844	5199.864258
573.000000	-1476.000000	1674.719727	5151.038574
573.000000	-1476.000000	1673.723633	5170.028809
573.000000	-1476.000000	1672.728516	5214.115234
573.000000	-1476.000000	1671.732422	5170.336914
573.000000	-1476.000000	1670.735352	5161.708008
573.000000	-1476.000000	1669.739258	5010.080566
573.000000	-1476.000000	1668.742188	5139.444336
573.000000	-1476.000000	1667.746094	5341.476563
573.000000	-1476.000000	1666.748047	5109.677246
573.000000	-1476.000000	1665.750977	5186.296387
573.000000	-1476.000000	1664.753906	5165.143555
573.000000	-1476.000000	1663.755859	5081.359863
573.000000	-1476.000000	1662.757813	5010.136719
573.000000	-1476.000000	1661.759766	5029.106934
573.000000	-1476.000000	1660.761719	5148.229004
573.000000	-1476.000000	1659.762695	5052.001953
573.000000	-1476.000000	1658.763672	5181.080078
573.000000	-1476.000000	1657.764648	4987.292969
573.000000	-1476.000000	1656.765625	5053.783203
573.000000	-1476.000000	1655.765625	4995.177734
573.000000	-1476.000000	1654.766602	5176.674316
573.000000	-1476.000000	1653.766602	4963.050293
573.000000	-1476.000000	1652.766602	5036.987305
573.000000	-1476.000000	1651.765625	5128.387695
573.000000	-1476.000000	1650.765625	5062.331543
573.000000	-1476.000000	1649.764648	4996.303711
573.000000	-1476.000000	1648.763672	4977.758301
573.000000	-1476.000000	1647.762695	4956.723633
573.000000	-1476.000000	1646.761719	5102.967285
573.000000	-1476.000000	1645.759766	5124.347168
573.000000	-1476.000000	1644.757813	5140.727051
573.000000	-1476.000000	1643.755859	5411.585938
573.000000	-1476.000000	1642.753906	5365.536621
573.000000	-1476.000000	1641.750977	5514.031250
573.000000	-1476.000000	1640.749023	5560.233887
573.000000	-1476.000000	1639.746094	5372.089355
573.000000	-1476.000000	1638.742188	5403.348145
573.000000	-1476.000000	1637.739258	5576.625977
573.000000	-1476.000000	1636.735352	5381.123535
573.000000	-1476.000000	1635.732422	5357.563965
573.000000	-1476.000000	1634.728516	5291.681152
573.000000	-1476.000000	1633.723633	5143.666504
573.000000	-1476.000000	1632.719727	5137.596191
573.000000	-1476.000000	1631.714844	5106.641602
573.000000	-1476.000000	1630.709961	5070.724609
573.000000	-1476.000000	1629.705078	4905.468750
573.000000	-1476.000000	1628.700195	4961.629395
573.000000	-1476.000000	1627.694336	4982.954590
573.000000	-1476.000000	1626.689453	4879.971680
573.000000	-1476.000000	1625.683594	4794.430664
573.000000	-1476.000000	1624.676758	4776.018555
573.000000	-1476.000000	1623.670898	4799.848633
573.000000	-1476.000000	1622.664063	4801.313965
573.000000	-1476.000000	1621.657227	4852.445313
573.000000	-1476.000000	1620.650391	4747.137207
573.000000	-1476.000000	1619.643555	4731.236328
573.000000	-1476.000000	1618.635742	4695.487793
573.000000	-1476.000000	1617.628906	4704.416016
573.000000	-1476.000000	1616.621094	4795.204102
573.000000	-1476.000000	1615.613281	4786.746094
573.000000	-1476.000000	1614.604492	4760.934082
573.000000	-1476.000000	1613.596680	4680.591797
573.000000	-1476.000000	1612.587891	4778.742676
573.000000	-1476.000000	1611.579102	4728.167480
573.000000	-1476.000000	1610.569336	4699.911133
573.000000	-1476.000000	1609.560547	4716.253418
573.000000	-1476.000000	1608.550781	4821.742188
573.000000	-1476.000000	1607.541016	4689.493164
573.000000	-1476.000000	1606.531250	4827.123047
573.000000	-1476.000000	1605.521484	4895.396973
573.000000	-1476.000000	1604.510742	4948.795410
573.000000	-1476.000000	1603.500000	4883.425293
573.000000	-1476.000000	1602.489258	4867.549316
573.000000	-1476.000000	1601.478516	4856.625488
573.000000	-1476.000000	1600.467773	4932.236816
573.000000	-1476.000000	1599.456055	4881.754883
573.000000	-1476.000000	1598.444336	4749.743652
573.000000	-1476.000000	1597.432617	4724.028809
573.000000	-1476.000000	1596.419922	4816.894531
573.000000	-1476.000000	1595.408203	4838.100098
573.000000	-1476.000000	1594.395508	4582.750977
573.000000	-1476.000000	1593.382813	4682.993164
573.000000	-1476.000000	1592.370117	4760.979492
573.000000	-1476.000000	1591.356445	4727.891113
573.000000	-1476.000000	1590.343750	4763.894043
573.000000	-1476.000000	1589.330078	4775.216797
573.000000	-1476.000000	1588.316406	4747.077637
573.000000	-1476.000000	1587.301758	4832.363281
573.000000	-1476.000000	1586.288086	4764.784180
573.000000	-1476.000000	1585.273438	4736.664551
573.000000	-1476.000000	1584.258789	4814.505859
573.000000	-1476.000000	1583.244141	4860.289551
573.000000	-1476.000000	1582.228516	4728.726074
573.000000	-1476.000000	1581.213867	4791.744629
573.000000	-1476.000000	1580.198242	4775.957031
573.000000	-1476.000000	1579.182617	4831.554688
573.000000	-1476.000000	1578.166016	4788.696289
573.000000	-1476.000000	1577.150391	4785.220703
573.000000	-1476.000000	1576.133789	4754.688477
573.000000	-1476.000000	1575.117188	4844.671387
573.000000	-1476.000000	1574.100586	4752.671875
573.000000	-1476.000000	1573.083984	4736.915039
573.000000	-1476.000000	1572.066406	4713.791504
573.000000	-1476.000000	1571.048828	4698.048828
573.000000	-1476.000000	1570.031250	4579.134766
573.000000	-1476.000000	1569.013672	4730.441406
573.000000	-1476.000000	1567.995117	4808.016602
573.000000	-1476.000000	1566.976563	4787.355957
573.000000	-1476.000000	1565.958008	4793.704102
573.000000	-1476.000000	1564.939453	4699.435059
573.000000	-1476.000000	1563.920898	4850.554688
573.000000	-1476.000000	1562.901367	4766.124512
573.000000	-1476.000000	1561.881836	4747.946289
573.000000	-1476.000000	1560.862305	4759.198730
573.000000	-1476.000000	1559.842773	4919.981934
573.000000	-1476.000000	1558.822266	4882.174805
573.000000	-1476.000000	1557.802734	4736.567383
573.000000	-1476.000000	1556.782227	4826.206543
573.000000	-1476.000000	1555.761719	4830.081543
573.000000	-1476.000000	1554.740234	4802.119629
573.000000	-1476.000000	1553.719727	4896.583984
573.000000	-1476.000000	1552.698242	4871.067383
573.000000	-1476.000000	1551.676758	4813.746582
573.000000	-1476.000000	1550.654297	4908.147949
573.000000	-1476.000000	1549.632813	4767.671875
573.000000	-1476.000000	1548.610352	4898.727539
573.000000	-1476.000000	1547.587891	4961.262695
573.000000	-1476.000000	1546.565430	4913.761230
573.000000	-1476.000000	1545.542969	4827.173340
573.000000	-1476.000000	1544.519531	4879.908203
573.000000	-1476.000000	1543.496094	4854.441406
573.000000	-1476.000000	1542.472656	4965.769531
573.000000	-1476.000000	1541.449219	4862.148438
573.000000	-1476.000000	1540.424805	4887.973633
573.000000	-1476.000000	1539.400391	4857.643066
573.000000	-1476.000000	1538.375977	4910.303223
573.000000	-1476.000000	1537.351563	4838.500488
573.000000	-1476.000000	1536.327148	4820.396973
573.000000	-1476.000000	1535.301758	4780.350098
573.000000	-1476.000000	1534.276367	4889.064453
573.000000	-1476.000000	1533.250977	4814.888672
573.000000	-1476.000000	1532.225586	4928.423828
573.000000	-1476.000000	1531.199219	4932.250488
573.000000	-1476.000000	1530.173828	4960.438965
573.000000	-1476.000000	1529.147461	4993.487305
573.000000	-1476.000000	1528.121094	4858.483398
573.000000	-1476.000000	1527.093750	4889.103516
573.000000	-1476.000000	1526.067383	4927.013672
573.000000	-1476.000000	1525.040039	4882.158691
573.000000	-1476.000000	1524.012695	4951.685547
573.000000	-1476.000000	1522.984375	4782.773926
573.000000	-1476.000000	1521.957031	5017.683594
573.000000	-1476.000000	1520.928711	5011.753418
573.000000	-1476.000000	1519.900391	4957.202148
573.000000	-1476.000000	1518.872070	4863.782715
573.000000	-1476.000000	1517.842773	4938.083496
573.000000	-1476.000000	1516.814453	4934.604004
573.000000	-1476.000000	1515.785156	4901.976074
573.000000	-1476.000000	1514.755859	4995.649414
573.000000	-1476.000000	1513.725586	4919.316406
573.000000	-1476.000000	1512.696289	5000.807617
573.000000	-1476.000000	1511.666016	5079.836914
573.000000	-1476.000000	1510.635742	4882.206543
573.000000	-1476.000000	1509.605469	5097.084473
573.000000	-1476.000000	1508.574219	5054.766602
573.000000	-1476.000000	1507.543945	4997.916016
573.000000	-1476.000000	1506.512695	4996.852539
573.000000	-1476.000000	1505.481445	5121.835449
573.000000	-1476.000000	1504.449219	5169.214355
573.000000	-1476.000000	1503.417969	5100.271973
573.000000	-1476.000000	1502.385742	5116.143555
573.000000	-1476.000000	1501.353516	4998.803223
573.000000	-1476.000000	1500.321289	5065.537598
573.000000	-1476.000000	1499.288086	5030.566895
573.000000	-1476.000000	1498.255859	5157.774414
573.000000	-1476.000000	1497.222656	5176.035156
573.000000	-1476.000000	1496.189453	5114.449707
573.000000	-1476.000000	1495.155273	5212.531250
573.000000	-1476.000000	1494.122070	5124.362305
573.000000	-1476.000000	1493.087891	5188.550781
573.000000	-1476.000000	1492.053711	5308.308594
573.000000	-1476.000000	1491.018555	5256.425781
573.000000	-1476.000000	1489.984375	5289.132813
573.000000	-1476.000000	1488.949219	5208.287109
573.000000	-1476.000000	1487.914063	5340.013184
573.000000	-1476.000000	1486.878906	5271.263672
573.000000	-1476.000000	1485.843750	5236.341309
573.000000	-1476.000000	1484.807617	5392.112793
573.000000	-1476.000000	1483.771484	5304.089844
573.000000	-1476.000000	1482.735352	5298.133301
573.000000	-1476.000000	1481.699219	5523.742188
573.000000	-1476.000000	1480.662109	5380.279785
573.000000	-1476.000000	1479.625000	5362.254395
573.000000	-1476.000000	1478.587891	5544.313477
573.000000	-1476.000000	1477.550781	5449.138672
573.000000	-1476.000000	1476.513672	5513.033203
573.000000	-1476.000000	1475.475586	5593.763672
573.000000	-1476.000000	1474.437500	5597.386719
573.000000	-1476.000000	1473.399414	5675.655762
573.000000	-1476.000000	1472.361328	5732.223633
573.000000	-1476.000000	1471.322266	5750.255371
573.000000	-1476.000000	1470.283203	5789.937500
573.000000	-1476.000000	1469.244141	5824.790039
573.000000	-1476.000000	1468.205078	5845.194824
573.000000	-1476.000000	1467.166016	5952.166992
573.000000	-1476.000000	1466.125977	6049.476074
573.000000	-1476.000000	1465.085938	6115.492188
573.000000	-1476.000000	1464.045898	6114.185059
573.000000	-1476.000000	1463.004883	6038.389648
573.000000	-1476.000000	1461.964844	6162.020996
573.000000	-1476.000000	1460.923828	6254.375000
573.000000	-1476.000000	1459.882813	6130.570313
573.000000	-1476.000000	1458.841797	6275.708496
573.000000	-1476.000000	1457.799805	6281.567383
573.000000	-1476.000000	1456.757813	6361.815918
573.000000	-1476.000000	1455.715820	6326.865234
573.000000	-1476.000000	1454.673828	6203.175293
573.000000	-1476.000000	1453.631836	6420.087402
573.000000	-1476.000000	1452.588867	6380.350098
573.000000	-1476.000000	1451.545898	6426.928223
573.000000	-1476.000000	1450.502930	6296.130859
573.000000	-1476.000000	1449.458984	6443.346191
573.000000	-1476.000000	1448.416016	6391.657227
573.000000	-1476.000000	1447.372070	6289.691406
573.000000	-1476.000000	1446.328125	6242.845703
573.000000	-1476.000000	1445.284180	6277.420410
573.000000	-1476.000000	1444.239258	6347.884277
573.000000	-1476.000000	1443.194336	6289.088867
573.000000	-1476.000000	1442.150391	6129.829590
573.000000	-1476.000000	1441.104492	6188.317871
573.000000	-1476.000000	1440.059570	6177.424805
573.000000	-1476.000000	1439.013672	6061.329590
573.000000	-1476.000000	1437.967773	6081.544434
573.000000	-1476.000000	1436.921875	6022.878906
573.000000	-1476.000000	1435.875977	5988.133789
573.000000	-1476.000000	1434.829102	5948.625000
573.000000	-1476.000000	1433.783203	5947.348145
573.000000	-1476.000000	1432.735352	5876.820313
573.000000	-1476.000000	1431.688477	6042.681641
573.000000	-1476.000000	1430.641602	5976.936523
573.000000	-1476.000000	1429.593750	5887.354492
573.000000	-1476.000000	1428.545898	5876.546387
573.000000	-1476.000000	1427.498047	5968.315430
573.000000	-1476.000000	1426.449219	6014.730957
573.000000	-1476.000000	1425.401367	5991.979004
573.000000	-1476.000000	1424.352539	6121.804688
573.000000	-1476.000000	1423.303711	6015.620605
573.000000	-1476.000000	1422.253906	5964.287598
573.000000	-1476.000000	1421.205078	5903.446289
573.000000	-1476.000000	1420.155273	5959.340820
573.000000	-1476.000000	1419.105469	6067.599609
573.000000	-1476.000000	1418.055664	6063.913574
573.000000	-1476.000000	1417.004883	5919.791016
573.000000	-1476.000000	1415.955078	5913.757324
573.000000	-1476.000000	1414.904297	5976.724609
573.000000	-1476.000000	1413.852539	6068.209473
573.000000	-1476.000000	1412.801758	5938.478027
573.000000	-1476.000000	1411.750000	6117.906738
573.000000	-1476.000000	1410.698242	6183.150879
573.000000	-1476.000000	1409.646484	6058.229980
573.000000	-1476.000000	1408.594727	6213.753418
573.000000	-1476.000000	1407.541992	6057.995117
573.000000	-1476.000000	1406.490234	6313.207520
573.000000	-1476.000000	1405.437500	6311.846680
573.000000	-1476.000000	1404.383789	6319.981934
573.000000	-1476.000000	1403.331055	6252.157227
573.000000	-1476.000000	1402.277344	6141.645020
573.000000	-1476.000000	1401.223633	6092.867188
573.000000	-1476.000000	1400.169922	6236.250488
573.000000	-1476.000000	1399.115234	6268.106934
573.000000	-1476.000000	1398.061523	6081.809570
573.000000	-1476.000000	1397.006836	6018.861816
573.000000	-1476.000000	1395.952148	6081.553223
573.000000	-1476.000000	1394.896484	6103.935059
573.000000	-1476.000000	1393.841797	6078.926270
573.000000	-1476.000000	1392.786133	6011.293945
573.000000	-1476.000000	1391.730469	6078.666992
573.000000	-1476.000000	1390.673828	6020.533203
573.000000	-1476.000000	1389.618164	5960.056641
573.000000	-1476.000000	1388.561523	5857.009766
573.000000	-1476.000000	1387.504883	6042.653320
573.000000	-1476.000000	1386.448242	5918.342773
573.000000	-1476.000000	1385.390625	5983.280273
573.000000	-1476.000000	1384.333984	6069.468750
573.000000	-1476.000000	1383.276367	6113.069336
573.000000	-1476.000000	1382.217773	6050.297363
573.000000	-1476.000000	1381.160156	6160.042480
573.000000	-1476.000000	1380.101563	6113.822754
573.000000	-1476.000000	1379.042969	6103.050781
573.000000	-1476.000000	1377.984375	6165.484863
573.000000	-1476.000000	1376.925781	6060.271484
573.000000	-1476.000000	1375.866211	6169.893066
573.000000	-1476.000000	1374.807617	5984.489258
573.000000	-1476.000000	1373.747070	6039.814453
573.000000	-1476.000000	1372.687500	5958.305664
573.000000	-1476.000000	1371.627930	6037.193848
573.000000	-1476.000000	1370.567383	5953.361816
573.000000	-1476.000000	1369.506836	5994.500000
573.000000	-1476.000000	1368.446289	6028.549805
573.000000	-1476.000000	1367.384766	6031.952637
573.000000	-1476.000000	1366.323242	5957.615234
573.000000	-1476.000000	1365.261719	5904.506348
573.000000	-1476.000000	1364.200195	5929.124512
573.000000	-1476.000000	1363.138672	5996.107422
573.000000	-1476.000000	1362.076172	5983.035156
573.000000	-1476.000000	1361.013672	6066.447754
573.000000	-1476.000000	1359.951172	5952.201172
573.000000	-1476.000000	1358.888672	6042.639648
573.000000	-1476.000000	1357.825195	5916.688477
573.000000	-1476.000000	1356.761719	5924.805176
573.000000	-1476.000000	1355.698242	5956.423340
573.000000	-1476.000000	1354.634766	5973.927246
573.000000	-1476.000000	1353.570313	6010.219238
573.000000	-1476.000000	1352.506836	6044.145508
573.000000	-1476.000000	1351.442383	6031.085449
573.000000	-1476.000000	1350.376953	6079.080078
573.000000	-1476.000000	1349.312500	6141.137695
573.000000	-1476.000000	1348.247070	6186.738770
573.000000	-1476.000000	1347.181641	6053.985352
573.000000	-1476.000000	1346.116211	6212.191895
573.000000	-1476.000000	1345.049805	6156.890137
573.000000	-1476.000000	1343.984375	6193.065430
573.000000	-1476.000000	1342.917969	6086.212891
573.000000	-1476.000000	1341.851563	6166.921875
573.000000	-1476.000000	1340.784180	6205.413086
573.000000	-1476.000000	1339.716797	6236.857910
573.000000	-1476.000000	1338.650391	6235.495117
573.000000	-1476.000000	1337.582031	6234.131836
573.000000	-1476.000000	1336.514648	6242.134277
573.000000	-1476.000000	1335.446289	6353.130859
573.000000	-1476.000000	1334.378906	6211.319336
573.000000	-1476.000000	1333.310547	6209.960449
573.000000	-1476.000000	1332.241211	6180.529297
573.000000	-1476.000000	1331.172852	6230.630371
573.000000	-1476.000000	1330.103516	6088.966797
573.000000	-1476.000000	1329.034180	6349.466797
573.000000	-1476.000000	1327.964844	6303.667480
573.000000	-1476.000000	1326.894531	6264.897461
573.000000	-1476.000000	1325.824219	6186.427246
573.000000	-1476.000000	1324.753906	6259.814941
573.000000	-1476.000000	1323.683594	6272.453613
573.000000	-1476.000000	1322.612305	6282.750977
573.000000	-1476.000000	1321.541992	6190.337891
573.000000	-1476.000000	1320.470703	6088.629883
573.000000	-1476.000000	1319.399414	6206.286133
573.000000	-1476.000000	1318.327148	6232.915039
573.000000	-1476.000000	1317.254883	6273.524902
573.000000	-1476.000000	1316.182617	6365.412598
573.000000	-1476.000000	1315.110352	6322.053223
573.000000	-1476.000000	1314.038086	6322.994141
573.000000	-1476.000000	1312.964844	6188.787109
573.000000	-1476.000000	1311.891602	6273.621094
573.000000	-1476.000000	1310.818359	6269.911621
573.000000	-1476.000000	1309.745117	6375.646484
573.000000	-1476.000000	1308.670898	6341.649902
573.000000	-1476.000000	1307.596680	6314.650391
573.000000	-1476.000000	1306.522461	6410.995117
573.000000	-1476.000000	1305.448242	6388.644043
573.000000	-1476.000000	1304.373047	6268.609375
573.000000	-1476.000000	1303.297852	6471.871582
573.000000	-1476.000000	1302.222656	6351.870117
573.000000	-1476.000000	1301.147461	6317.926758
573.000000	-1476.000000	1300.071289	6493.153809
573.000000	-1476.000000	1298.996094	6501.014648
573.000000	-1476.000000	1297.919922	6406.662109
573.000000	-1476.000000	1296.842773	6265.901855
573.000000	-1476.000000	1295.766602	6322.565918
573.000000	-1476.000000	1294.689453	6414.024902
573.000000	-1476.000000	1293.612305	6512.405762
573.000000	-1476.000000	1292.535156	6443.675293
573.000000	-1476.000000	1291.457031	6523.445801
573.000000	-1476.000000	1290.378906	6496.489746
573.000000	-1476.000000	1289.300781	6439.400391
573.000000	-1476.000000	1288.222656	6500.570313
573.000000	-1476.000000	1287.144531	6564.029785
573.000000	-1476.000000	1286.065430	6720.152344
573.000000	-1476.000000	1284.986328	6561.122559
573.000000	-1476.000000	1283.907227	6622.208008
573.000000	-1476.000000	1282.827148	6576.741211
573.000000	-1476.000000	1281.748047	6644.740234
573.000000	-1476.000000	1280.667969	6585.398438
573.000000	-1476.000000	1279.586914	6706.591309
573.000000	-1476.000000	1278.506836	6679.652344
573.000000	-1476.000000	1277.425781	6814.647461
573.000000	-1476.000000	1276.344727	6769.193848
573.000000	-1476.000000	1275.263672	6585.029785
573.000000	-1476.000000	1274.182617	6585.878906
573.000000	-1476.000000	1273.100586	6769.305664
573.000000	-1476.000000	1272.018555	6818.634766
573.000000	-1476.000000	1270.936523	6696.993164
573.000000	-1476.000000	1269.853516	6767.101074
573.000000	-1476.000000	1268.771484	6781.758789
573.000000	-1476.000000	1267.688477	6775.632324
573.000000	-1476.000000	1266.605469	6917.223145
573.000000	-1476.000000	1265.521484	6814.150879
573.000000	-1476.000000	1264.438477	6976.431641
573.000000	-1476.000000	1263.354492	6753.452637
573.000000	-1476.000000	1262.270508	6784.230957
573.000000	-1476.000000	1261.185547	6877.243164
573.000000	-1476.000000	1260.101563	6723.581543
573.000000	-1476.000000	1259.016602	6977.875488
573.000000	-1476.000000	1257.930664	6909.503906
573.000000	-1476.000000	1256.845703	6974.760742
573.000000	-1476.000000	1255.759766	6940.962402
573.000000	-1476.000000	1254.674805	7026.902832
573.000000	-1476.000000	1253.587891	7006.917480
573.000000	-1476.000000	1252.501953	7113.515625
573.000000	-1476.000000	1251.415039	7026.793457
573.000000	-1476.000000	1250.329102	7045.924805
573.000000	-1476.000000	1249.241211	7191.537109
573.000000	-1476.000000	1248.154297	6927.806641
573.000000	-1476.000000	1247.066406	6999.816895
573.000000	-1476.000000	1245.979492	7097.075195
573.000000	-1476.000000	1244.890625	7028.850586
573.000000	-1476.000000	1243.802734	7121.462402
573.000000	-1476.000000	1242.713867	7179.581055
573.000000	-1476.000000	1241.625000	7026.420898
573.000000	-1476.000000	1240.536133	7086.828613
573.000000	-1476.000000	1239.447266	6981.955078
573.000000	-1476.000000	1238.357422	7072.174805
573.000000	-1476.000000	1237.267578	6990.291504
573.000000	-1476.000000	1236.177734	6929.086914
573.000000	-1476.000000	1235.087891	6744.080078
573.000000	-1476.000000	1233.997070	6916.802734
573.000000	-1476.000000	1232.906250	6880.866211
573.000000	-1476.000000	1231.815430	6803.696777
573.000000	-1476.000000	1230.724609	6962.540527
573.000000	-1476.000000	1229.632813	6846.446289
573.000000	-1476.000000	1228.541016	6771.623535
573.000000	-1476.000000	1227.449219	6756.361816
573.000000	-1476.000000	1226.357422	6830.376465
573.000000	-1476.000000	1225.264648	6785.356445
573.000000	-1476.000000	1224.171875	6669.428223
573.000000	-1476.000000	1223.079102	6537.539551
573.000000	-1476.000000	1221.986328	6760.184570
573.000000	-1476.000000	1220.892578	6724.362793
573.000000	-1476.000000	1219.798828	6798.279785
573.000000	-1476.000000	1218.705078	6723.612305
573.000000	-1476.000000	1217.611328	6834.052246
573.000000	-1476.000000	1216.516602	6857.635742
573.000000	-1476.000000	1215.421875	6796.706055
573.000000	-1476.000000	1214.327148	6694.703125
573.000000	-1476.000000	1213.231445	6636.118652
573.000000	-1476.000000	1212.136719	6693.956543
573.000000	-1476.000000	1211.041016	6863.574219
573.000000	-1476.000000	1209.945313	6570.019531
573.000000	-1476.000000	1208.848633	6769.236328
573.000000	-1476.000000	1207.752930	6655.971680
573.000000	-1476.000000	1206.656250	6793.525391
573.000000	-1476.000000	1205.558594	6766.913574
573.000000	-1476.000000	1204.461914	6890.706055
573.000000	-1476.000000	1203.364258	6839.022949
573.000000	-1476.000000	1202.266602	6871.635254
573.000000	-1476.000000	1201.168945	6804.038574
573.000000	-1476.000000	1200.071289	6816.152344
573.000000	-1476.000000	1198.972656	6728.112305
573.000000	-1476.000000	1197.874023	6671.969727
573.000000	-1476.000000	1196.775391	6747.804199
573.000000	-1476.000000	1195.675781	6914.584961
573.000000	-1476.000000	1194.576172	6669.691895
573.000000	-1476.000000	1193.476563	6593.147949
573.000000	-1476.000000	1192.376953	6721.206543
573.000000	-1476.000000	1191.276367	6692.406250
573.000000	-1476.000000	1190.176758	6711.328613
573.000000	-1476.000000	1189.076172	6659.827148
573.000000	-1476.000000	1187.974609	6871.774414
573.000000	-1476.000000	1186.874023	6556.892578
573.000000	-1476.000000	1185.772461	6827.781250
573.000000	-1476.000000	1184.670898	6703.677246
573.000000	-1476.000000	1183.569336	6752.061035
573.000000	-1476.000000	1182.466797	6691.541992
573.000000	-1476.000000	1181.364258	6919.060547
573.000000	-1476.000000	1180.261719	6890.271484
573.000000	-1476.000000	1179.159180	6890.962402
573.000000	-1476.000000	1178.055664	6853.125977
573.000000	-1476.000000	1176.952148	6935.389648
573.000000	-1476.000000	1175.848633	6818.275879
573.000000	-1476.000000	1174.745117	6884.654785
573.000000	-1476.000000	1173.640625	6760.812500
573.000000	-1476.000000	1172.536133	6913.190918
573.000000	-1476.000000	1171.431641	6979.500000
573.000000	-1476.000000	1170.326172	6760.687988
573.000000	-1476.000000	1169.221680	6790.806152
573.000000	-1476.000000	1168.116211	6904.587402
573.000000	-1476.000000	1167.010742	6871.347168
573.000000	-1476.000000	1165.904297	6989.577148
573.000000	-1476.000000	1164.797852	6963.110840
573.000000	-1476.000000	1163.691406	6929.876953
573.000000	-1476.000000	1162.584961	6944.096191
573.000000	-1476.000000	1161.478516	6813.766602
573.000000	-1476.000000	1160.371094	6909.289551
573.000000	-1476.000000	1159.263672	6970.906250
573.000000	-1476.000000	1158.155273	6951.245605
573.000000	-1476.000000	1157.047852	7019.591797
573.000000	-1476.000000	1155.939453	6936.762695
573.000000	-1476.000000	1154.831055	6793.077148
573.000000	-1476.000000	1153.722656	6904.250977
573.000000	-1476.000000	1152.613281	6938.726074
573.000000	-1476.000000	1151.503906	6831.196777
573.000000	-1476.000000	1150.394531	6737.235840
573.000000	-1476.000000	1149.285156	6805.514160
573.000000	-1476.000000	1148.174805	7053.937012
573.000000	-1476.000000	1147.064453	6892.435547
573.000000	-1476.000000	1145.954102	6794.041016
573.000000	-1476.000000	1144.842773	6999.528809
573.000000	-1476.000000	1143.732422	6820.147949
573.000000	-1476.000000	1142.621094	7099.770020
573.000000	-1476.000000	1141.508789	7057.641602
573.000000	-1476.000000	1140.397461	6853.634766
573.000000	-1476.000000	1139.285156	6901.502930
573.000000	-1476.000000	1138.172852	6863.941895
573.000000	-1476.000000	1137.060547	6970.205078
573.000000	-1476.000000	1135.947266	6921.411133
573.000000	-1476.000000	1134.834961	7029.855957
573.000000	-1476.000000	1133.720703	6911.459961
573.000000	-1476.000000	1132.607422	6936.792969
573.000000	-1476.000000	1131.493164	7060.866211
573.000000	-1476.000000	1130.379883	7054.736328
573.000000	-1476.000000	1129.264648	7028.417969
573.000000	-1476.000000	1128.150391	7082.853027
573.000000	-1476.000000	1127.035156	7179.865234
573.000000	-1476.000000	1125.919922	7247.687500
573.000000	-1476.000000	1124.804688	6997.218750
573.000000	-1476.000000	1123.689453	7273.438965
573.000000	-1476.000000	1122.573242	7121.647949
573.000000	-1476.000000	1121.457031	6983.365234
573.000000	-1476.000000	1120.340820	7095.932617
573.000000	-1476.000000	1119.223633	7085.321289
573.000000	-1476.000000	1118.106445	7085.903809
573.000000	-1476.000000	1116.989258	7209.553711
573.000000	-1476.000000	1115.872070	7138.518555
573.000000	-1476.000000	1114.753906	7250.913574
573.000000	-1476.000000	1113.635742	7204.496094
573.000000	-1476.000000	1112.517578	7171.512695
573.000000	-1476.000000	1111.399414	7353.102051
573.000000	-1476.000000	1110.280273	7355.848145
573.000000	-1476.000000	1109.161133	7188.812500
573.000000	-1476.000000	1108.041992	7316.665039
573.000000	-1476.000000	1106.921875	7393.100098
573.000000	-1476.000000	1105.802734	7411.456543
573.000000	-1476.000000	1104.682617	7391.861816
573.000000	-1476.000000	1103.561523	7548.549316
573.000000	-1476.000000	1102.441406	7696.239258
573.000000	-1476.000000	1101.320313	7582.916504
573.000000	-1476.000000	1100.199219	7668.093750
573.000000	-1476.000000	1099.077148	7574.891602
573.000000	-1476.000000	1097.956055	7557.508301
573.000000	-1476.000000	1096.833984	7676.050293
573.000000	-1476.000000	1095.711914	7596.274414
573.000000	-1476.000000	1094.588867	7723.657715
573.000000	-1476.000000	1093.465820	7757.462402
573.000000	-1476.000000	1092.342773	7512.991211
573.000000	-1476.000000	1091.219727	7778.284180
573.000000	-1476.000000	1090.096680	7754.197754
573.000000	-1476.000000	1088.972656	7776.836426
573.000000	-1476.000000	1087.848633	7999.620117
573.000000	-1476.000000	1086.723633	7948.813965
573.000000	-1476.000000	1085.599609	8124.768066
573.000000	-1476.000000	1084.474609	8185.073242
573.000000	-1476.000000	1083.349609	8116.480469
573.000000	-1476.000000	1082.223633	8254.503906
573.000000	-1476.000000	1081.097656	8379.134766
573.000000	-1476.000000	1079.971680	8483.723633
573.000000	-1476.000000	1078.845703	8601.580078
573.000000	-1476.000000	1077.719727	8659.458984
573.000000	-1476.000000	1076.592773	8606.375000
573.000000	-1476.000000	1075.465820	8739.641602
573.000000	-1476.000000	1074.337891	8890.584961
573.000000	-1476.000000	1073.210938	8952.769531
573.000000	-1476.000000	1072.083008	9026.005859
573.000000	-1476.000000	1070.954102	8897.543945
573.000000	-1476.000000	1069.826172	8895.427734
573.000000	-1476.000000	1068.697266	8975.266602
573.000000	-1476.000000	1067.568359	8698.533203
573.000000	-1476.000000	1066.439453	8740.741211
573.000000	-1476.000000	1065.309570	8583.717773
573.000000	-1476.000000	1064.180664	8471.025391
573.000000	-1476.000000	1063.049805	8457.944336
573.000000	-1476.000000	1061.919922	8469.197266
573.000000	-1476.000000	1060.789063	8374.299805
573.000000	-1476.000000	1059.658203	8259.549805
573.000000	-1476.000000	1058.527344	8138.221680
573.000000	-1476.000000	1057.396484	8089.872559
573.000000	-1476.000000	1056.264648	7981.895996
573.000000	-1476.000000	1055.132813	8083.794922
573.000000	-1476.000000	1054.000000	8084.068359
573.000000	-1476.000000	1052.868164	8044.603516
573.000000	-1476.000000	1051.735352	8077.990234
573.000000	-1476.000000	1050.602539	8091.500488
573.000000	-1476.000000	1049.468750	8027.791504
573.000000	-1476.000000	1048.335938	7860.453125
573.000000	-1476.000000	1047.202148	8079.065430
573.000000	-1476.000000	1046.067383	8152.077637
573.000000	-1476.000000	1044.933594	8231.665039
573.000000	-1476.000000	1043.798828	8207.653320
573.000000	-1476.000000	1042.664063	8058.088379
573.000000	-1476.000000	1041.528320	8120.018555
573.000000	-1476.000000	1040.393555	8115.863281
573.000000	-1476.000000	1039.257813	8186.552246
573.000000	-1476.000000	1038.122070	8158.171875
573.000000	-1476.000000	1036.985352	8279.418945
573.000000	-1476.000000	1035.848633	8358.811523
573.000000	-1476.000000	1034.711914	8290.822266
573.000000	-1476.000000	1033.575195	8407.547852
573.000000	-1476.000000	1032.437500	8392.330078
573.000000	-1476.000000	1031.299805	8306.796875
573.000000	-1476.000000	1030.162109	8443.203125
573.000000	-1476.000000	1029.023438	8236.887695
573.000000	-1476.000000	1027.885742	8256.856445
573.000000	-1476.000000	1026.747070	8292.181641
573.000000	-1476.000000	1025.607422	8266.031250
573.000000	-1476.000000	1024.468750	8253.058594
573.000000	-1476.000000	1023.329102	8229.121094
573.000000	-1476.000000	1022.189453	8235.900391
573.000000	-1476.000000	1021.048828	8080.408691
573.000000	-1476.000000	1019.908203	8122.293945
573.000000	-1476.000000	1018.767578	8256.209961
573.000000	-1476.000000	1017.626953	8184.087402
573.000000	-1476.000000	1016.485352	8153.621094
573.000000	-1476.000000	1015.344727	8180.111816
573.000000	-1476.000000	1014.202148	8075.212402
573.000000	-1476.000000	1013.060547	8082.004883
573.000000	-1476.000000	1011.917969	8121.620605
573.000000	-1476.000000	1010.775391	8032.123535
573.000000	-1476.000000	1009.632813	8084.854004
573.000000	-1476.000000	1008.489258	8052.267090
573.000000	-1476.000000	1007.345703	8170.556152
573.000000	-1476.000000	1006.202148	8419.937500
573.000000	-1476.000000	1005.058594	8682.307617
573.000000	-1476.000000	1003.914063	8887.744141
573.000000	-1476.000000	1002.769531	9027.550781
573.000000	-1476.000000	1001.625000	8686.867188
573.000000	-1476.000000	1000.479492	8627.980469
573.000000	-1476.000000	999.333984	8248.270508
573.000000	-1476.000000	998.188477	8344.448242
573.000000	-1476.000000	997.042969	8294.411133
573.000000	-1476.000000	995.896484	8198.594727
573.000000	-1476.000000	994.750000	8296.889648
573.000000	-1476.000000	993.603516	8135.716797
573.000000	-1476.000000	992.456055	8253.591797
573.000000	-1476.000000	991.308594	8301.681641
573.000000	-1476.000000	990.161133	8297.465820
573.000000	-1476.000000	989.012695	8232.270508
573.000000	-1476.000000	987.865234	8369.595703
573.000000	-1476.000000	986.716797	8308.765625
573.000000	-1476.000000	985.567383	8352.422852
573.000000	-1476.000000	984.418945	8324.259766
573.000000	-1476.000000	983.269531	8400.516602
573.000000	-1476.000000	982.119141	8548.498047
573.000000	-1476.000000	980.969727	8583.351563
573.000000	-1476.000000	979.819336	8602.971680
573.000000	-1476.000000	978.668945	8785.557617
573.000000	-1476.000000	977.518555	8837.702148
573.000000	-1476.000000	976.367188	9087.466797
573.000000	-1476.000000	975.215820	9261.108398
573.000000	-1476.000000	974.064453	9577.939453
573.000000	-1476.000000	972.912109	10046.537109
573.000000	-1476.000000	971.760742	10616.882813
573.000000	-1476.000000	970.607422	11280.222656
573.000000	-1476.000000	969.455078	11758.889648
573.000000	-1476.000000	968.301758	12696.975586
573.000000	-1476.000000	967.148438	13556.558594
573.000000	-1476.000000	965.995117	14623.757813
573.000000	-1476.000000	964.840820	15538.763672
573.000000	-1476.000000	963.687500	16334.179688
573.000000	-1476.000000	962.532227	17239.640625
573.000000	-1476.000000	961.377930	17609.898438
573.000000	-1476.000000	960.222656	18157.453125
573.000000	-1476.000000	959.067383	17832.681641
573.000000	-1476.000000	957.912109	17553.500000
573.000000	-1476.000000	956.755859	16991.123047
573.000000	-1476.000000	955.599609	16195.497070
573.000000	-1476.000000	954.443359	15242.457031
573.000000	-1476.000000	953.286133	14464.947266
573.000000	-1476.000000	952.129883	13828.264648
573.000000	-1476.000000	950.972656	13099.012695
573.000000	-1476.000000	949.814453	12365.802734
573.000000	-1476.000000	948.656250	12012.948242
573.000000	-1476.000000	947.498047	11522.124023
573.000000	-1476.000000	946.339844	11061.754883
573.000000	-1476.000000	945.180664	10599.456055
573.000000	-1476.000000	944.022461	10476.017578
573.000000	-1476.000000	942.862305	10255.604492
573.000000	-1476.000000	941.703125	9914.573242
573.000000	-1476.000000	940.542969	9737.512695
573.000000	-1476.000000	939.382813	9659.656250
573.000000	-1476.000000	938.222656	9540.907227
573.000000	-1476.000000	937.061523	9370.528320
573.000000	-1476.000000	935.900391	9208.845703
573.000000	-1476.000000	934.739258	9006.343750
573.000000	-1476.000000	933.577148	8922.303711
573.000000	-1476.000000	932.415039	8978.150391
573.000000	-1476.000000	931.252930	8775.854492
573.000000	-1476.000000	930.090820	8638.170898
573.000000	-1476.000000	928.927734	8786.486328
573.000000	-1476.000000	927.764648	8749.883789
573.000000	-1476.000000	926.600586	8698.255859
573.000000	-1476.000000	925.437500	8453.312500
573.000000	-1476.000000	924.273438	8504.872070
573.000000	-1476.000000	923.108398	8466.223633
573.000000	-1476.000000	921.944336	8431.886719
573.000000	-1476.000000	920.779297	8489.845703
573.000000	-1476.000000	919.614258	8404.024414
573.000000	-1476.000000	918.448242	8504.858398
573.000000	-1476.000000	917.283203	8399.773438
573.000000	-1476.000000	916.116211	8442.668945
573.000000	-1476.000000	914.950195	8294.782227
573.000000	-1476.000000	913.783203	8386.963867
573.000000	-1476.000000	912.616211	8305.573242
573.000000	-1476.000000	911.449219	8215.656250
573.000000	-1476.000000	910.282227	8301.359375
573.000000	-1476.000000	909.114258	8279.986328
573.000000	-1476.000000	907.945313	8284.302734
573.000000	-1476.000000	906.777344	8369.918945
573.000000	-1476.000000	905.608398	8295.064453
573.000000	-1476.000000	904.439453	8138.984375
573.000000	-1476.000000	903.270508	8092.016602
573.000000	-1476.000000	902.100586	8273.769531
573.000000	-1476.000000	900.930664	8380.639648
573.000000	-1476.000000	899.759766	8130.694336
573.000000	-1476.000000	898.589844	8312.293945
573.000000	-1476.000000	897.418945	8226.900391
573.000000	-1476.000000	896.248047	8293.109375
573.000000	-1476.000000	895.076172	8329.404297
573.000000	-1476.000000	893.904297	8301.672852
573.000000	-1476.000000	892.732422	8329.412109
573.000000	-1476.000000	891.559570	8286.764648
573.000000	-1476.000000	890.387695	8401.899414
573.000000	-1476.000000	889.214844	8273.997070
573.000000	-1476.000000	888.041016	8105.672363
573.000000	-1476.000000	886.867188	8276.147461
573.000000	-1476.000000	885.693359	8442.273438
573.000000	-1476.000000	884.519531	8295.322266
573.000000	-1476.000000	883.344727	8308.093750
573.000000	-1476.000000	882.169922	8316.599609
573.000000	-1476.000000	880.995117	8295.314453
573.000000	-1476.000000	879.820313	8556.929688
573.000000	-1476.000000	878.644531	8350.588867
573.000000	-1476.000000	877.468750	8520.638672
573.000000	-1476.000000	876.291992	8499.316406
573.000000	-1476.000000	875.115234	8405.758789
573.000000	-1476.000000	873.938477	8531.048828
573.000000	-1476.000000	872.761719	8290.992188
573.000000	-1476.000000	871.583984	8331.315430
573.000000	-1476.000000	870.406250	8445.909180
573.000000	-1476.000000	869.228516	8248.497070
573.000000	-1476.000000	868.049805	8365.170898
573.000000	-1476.000000	866.871094	8443.604492
573.000000	-1476.000000	865.692383	8409.614258
573.000000	-1476.000000	864.512695	8392.598633
573.000000	-1476.000000	863.333008	8398.902344
573.000000	-1476.000000	862.153320	8362.826172
573.000000	-1476.000000	860.972656	8375.485352
573.000000	-1476.000000	859.791992	8455.902344
573.000000	-1476.000000	858.611328	8428.302734
573.000000	-1476.000000	857.430664	8559.459961
573.000000	-1476.000000	856.249023	8536.076172
573.000000	-1476.000000	855.067383	8641.747070
573.000000	-1476.000000	853.884766	8563.362305
573.000000	-1476.000000	852.703125	8537.875977
573.000000	-1476.000000	851.519531	8535.654297
573.000000	-1476.000000	850.336914	8404.520508
573.000000	-1476.000000	849.153320	8543.883789
573.000000	-1476.000000	847.969727	8450.833008
573.000000	-1476.000000	846.786133	8347.270508
573.000000	-1476.000000	845.601563	8532.978516
573.000000	-1476.000000	844.416992	8515.976563
573.000000	-1476.000000	843.232422	8558.061523
573.000000	-1476.000000	842.046875	8562.153320
573.000000	-1476.000000	840.862305	8665.357422
573.000000	-1476.000000	839.675781	8768.506836
573.000000	-1476.000000	838.490234	8757.780273
573.000000	-1476.000000	837.303711	8637.482422
573.000000	-1476.000000	836.117188	8740.551758
573.000000	-1476.000000	834.929688	8710.880859
573.000000	-1476.000000	833.742188	8809.663086
573.000000	-1476.000000	832.554688	8592.639648
573.000000	-1476.000000	831.367188	8664.039063
573.000000	-1476.000000	830.178711	8777.477539
573.000000	-1476.000000	828.990234	8459.667969
573.000000	-1476.000000	827.800781	8463.751953
573.000000	-1476.000000	826.612305	8404.763672
573.000000	-1476.000000	825.422852	8486.619141
573.000000	-1476.000000	824.232422	8398.237305
573.000000	-1476.000000	823.042969	8402.325195
573.000000	-1476.000000	821.851563	8307.708984
573.000000	-1476.000000	820.661133	8274.024414
573.000000	-1476.000000	819.469727	8290.731445
573.000000	-1476.000000	818.278320	8529.853516
573.000000	-1476.000000	817.086914	8418.513672
573.000000	-1476.000000	815.895508	8401.606445
573.000000	-1476.000000	814.703125	8671.956055
573.000000	-1476.000000	813.509766	8594.199219
573.000000	-1476.000000	812.317383	8470.379883
573.000000	-1476.000000	811.124023	8681.829102
573.000000	-1476.000000	809.929688	8566.425781
573.000000	-1476.000000	808.736328	8461.551758
573.000000	-1476.000000	807.541992	8429.999023
573.000000	-1476.000000	806.347656	8180.809082
573.000000	-1476.000000	805.152344	8274.879883
573.000000	-1476.000000	803.957031	8278.956055
573.000000	-1476.000000	802.761719	8301.848633
573.000000	-1476.000000	801.566406	8096.852539
573.000000	-1476.000000	800.370117	8144.857910
573.000000	-1476.000000	799.172852	8111.346680
573.000000	-1476.000000	797.976563	8207.364258
573.000000	-1476.000000	796.779297	7967.103027
573.000000	-1476.000000	795.582031	8106.948730
573.000000	-1476.000000	794.383789	8115.221191
573.000000	-1476.000000	793.186523	8079.667480
573.000000	-1476.000000	791.987305	8123.403320
573.000000	-1476.000000	790.789063	8000.268555
573.000000	-1476.000000	789.589844	8096.125000
573.000000	-1476.000000	788.390625	7952.215332
573.000000	-1476.000000	787.191406	7989.680176
573.000000	-1476.000000	785.991211	8160.457520
573.000000	-1476.000000	784.791016	8289.485352
573.000000	-1476.000000	783.589844	8156.082520
573.000000	-1476.000000	782.388672	8368.305664
573.000000	-1476.000000	781.187500	8120.488770
573.000000	-1476.000000	779.986328	8080.857910
573.000000	-1476.000000	778.784180	8103.645996
573.000000	-1476.000000	777.582031	8068.196289
573.000000	-1476.000000	776.379883	8001.581055
573.000000	-1476.000000	775.176758	7955.782715
573.000000	-1476.000000	773.973633	8094.927246
573.000000	-1476.000000	772.769531	8051.202148
573.000000	-1476.000000	771.566406	7982.579590
573.000000	-1476.000000	770.361328	8192.185547
573.000000	-1476.000000	769.157227	8040.538086
573.000000	-1476.000000	767.952148	8030.067383
573.000000	-1476.000000	766.747070	8123.319824
573.000000	-1476.000000	765.541992	8224.815430
573.000000	-1476.000000	764.335938	8075.389160
573.000000	-1476.000000	763.129883	8127.094238
573.000000	-1476.000000	761.922852	8153.903809
573.000000	-1476.000000	760.716797	8139.265625
573.000000	-1476.000000	759.509766	7973.448730
573.000000	-1476.000000	758.301758	8078.950684
573.000000	-1476.000000	757.093750	8126.436523
573.000000	-1476.000000	755.885742	8070.427246
573.000000	-1476.000000	754.677734	8159.261719
573.000000	-1476.000000	753.468750	8097.065918
573.000000	-1476.000000	752.259766	8266.479492
573.000000	-1476.000000	751.049805	8032.716797
573.000000	-1476.000000	749.840820	8164.854492
573.000000	-1476.000000	748.629883	8044.871094
573.000000	-1476.000000	747.419922	8166.603027
573.000000	-1476.000000	746.208984	8102.431152
573.000000	-1476.000000	744.998047	8211.692383
573.000000	-1476.000000	743.787109	8205.323242
573.000000	-1476.000000	742.575195	8201.019531
573.000000	-1476.000000	741.363281	8132.776367
573.000000	-1476.000000	740.150391	8043.948242
573.000000	-1476.000000	738.937500	8278.815430
573.000000	-1476.000000	737.724609	8111.678711
573.000000	-1476.000000	736.511719	8288.706055
573.000000	-1476.000000	735.297852	8154.610840
573.000000	-1476.000000	734.083984	8271.809570
573.000000	-1476.000000	732.869141	7985.448730
573.000000	-1476.000000	731.654297	8075.871094
573.000000	-1476.000000	730.439453	8209.449219
573.000000	-1476.000000	729.223633	8087.891602
573.000000	-1476.000000	728.007813	8114.458008
573.000000	-1476.000000	726.791992	8215.016602
573.000000	-1476.000000	725.576172	8371.010742
573.000000	-1476.000000	724.359375	8056.395020
