#X		#Y		#Wave		#Intensity
442.500000	-1652.000000	1819.619141	1651.250977
442.500000	-1652.000000	1818.655273	1617.552002
442.500000	-1652.000000	1817.690430	1635.339722
442.500000	-1652.000000	1816.725586	1640.164307
442.500000	-1652.000000	1815.760742	1634.624634
442.500000	-1652.000000	1814.794922	1639.447266
442.500000	-1652.000000	1813.830078	1626.142090
442.500000	-1652.000000	1812.864258	1664.619263
442.500000	-1652.000000	1811.898438	1679.785278
442.500000	-1652.000000	1810.931641	1640.603027
442.500000	-1652.000000	1809.965820	1673.877686
442.500000	-1652.000000	1808.999023	1673.512329
442.500000	-1652.000000	1808.032227	1652.459106
442.500000	-1652.000000	1807.065430	1646.927734
442.500000	-1652.000000	1806.098633	1625.889526
442.500000	-1652.000000	1805.130859	1721.154785
442.500000	-1652.000000	1804.163086	1684.607056
442.500000	-1652.000000	1803.195313	1715.238281
442.500000	-1652.000000	1802.227539	1722.612427
442.500000	-1652.000000	1801.259766	1652.521484
442.500000	-1652.000000	1800.291016	1677.976685
442.500000	-1652.000000	1799.322266	1708.582642
442.500000	-1652.000000	1798.353516	1625.638672
442.500000	-1652.000000	1797.384766	1692.360229
442.500000	-1652.000000	1796.415039	1622.352173
442.500000	-1652.000000	1795.445313	1701.938843
442.500000	-1652.000000	1794.475586	1740.240723
442.500000	-1652.000000	1793.505859	1696.043701
442.500000	-1652.000000	1792.536133	1705.983154
442.500000	-1652.000000	1791.565430	1666.965576
442.500000	-1652.000000	1790.594727	1705.241943
442.500000	-1652.000000	1789.624023	1766.679565
442.500000	-1652.000000	1788.653320	1722.524780
442.500000	-1652.000000	1787.681641	1742.744629
442.500000	-1652.000000	1786.710938	1703.761475
442.500000	-1652.000000	1785.739258	1693.099365
442.500000	-1652.000000	1784.767578	1677.296875
442.500000	-1652.000000	1783.794922	1720.656738
442.500000	-1652.000000	1782.823242	1761.426392
442.500000	-1652.000000	1781.850586	1699.343750
442.500000	-1652.000000	1780.877930	1711.827026
442.500000	-1652.000000	1779.905273	1698.607300
442.500000	-1652.000000	1778.931641	1780.453613
442.500000	-1652.000000	1777.958984	1703.008667
442.500000	-1652.000000	1776.985352	1771.978149
442.500000	-1652.000000	1776.011719	1745.919189
442.500000	-1652.000000	1775.038086	1730.139526
442.500000	-1652.000000	1774.063477	1781.093384
442.500000	-1652.000000	1773.088867	1713.995605
442.500000	-1652.000000	1772.114258	1746.973755
442.500000	-1652.000000	1771.139648	1746.595947
442.500000	-1652.000000	1770.165039	1720.576294
442.500000	-1652.000000	1769.189453	1727.895264
442.500000	-1652.000000	1768.214844	1771.094360
442.500000	-1652.000000	1767.239258	1783.524292
442.500000	-1652.000000	1766.262695	1770.328979
442.500000	-1652.000000	1765.287109	1757.139526
442.500000	-1652.000000	1764.310547	1818.220947
442.500000	-1652.000000	1763.333984	1774.302979
442.500000	-1652.000000	1762.357422	1809.756592
442.500000	-1652.000000	1761.380859	1732.589600
442.500000	-1652.000000	1760.403320	1821.768921
442.500000	-1652.000000	1759.426758	1829.050171
442.500000	-1652.000000	1758.449219	1861.903931
442.500000	-1652.000000	1757.471680	1800.134155
442.500000	-1652.000000	1756.493164	1855.988037
442.500000	-1652.000000	1755.515625	1766.131226
442.500000	-1652.000000	1754.537109	1839.855835
442.500000	-1652.000000	1753.558594	1829.240112
442.500000	-1652.000000	1752.580078	1821.183228
442.500000	-1652.000000	1751.600586	1841.220581
442.500000	-1652.000000	1750.621094	1784.654663
442.500000	-1652.000000	1749.641602	1825.111938
442.500000	-1652.000000	1748.662109	1865.551880
442.500000	-1652.000000	1747.682617	1819.223267
442.500000	-1652.000000	1746.702148	1867.299927
442.500000	-1652.000000	1745.722656	1826.091553
442.500000	-1652.000000	1744.742188	1820.598999
442.500000	-1652.000000	1743.761719	1868.644287
442.500000	-1652.000000	1742.780273	1916.668823
442.500000	-1652.000000	1741.799805	1893.322754
442.500000	-1652.000000	1740.818359	1928.583008
442.500000	-1652.000000	1739.836914	1900.150146
442.500000	-1652.000000	1738.854492	1937.940430
442.500000	-1652.000000	1737.873047	1973.168335
442.500000	-1652.000000	1736.890625	2008.381104
442.500000	-1652.000000	1735.908203	1997.769897
442.500000	-1652.000000	1734.925781	1918.464966
442.500000	-1652.000000	1733.943359	1999.455811
442.500000	-1652.000000	1732.959961	2070.238770
442.500000	-1652.000000	1731.976563	2049.452393
442.500000	-1652.000000	1730.993164	2059.181152
442.500000	-1652.000000	1730.009766	2048.572754
442.500000	-1652.000000	1729.026367	2076.085449
442.500000	-1652.000000	1728.041992	2085.802246
442.500000	-1652.000000	1727.057617	2131.075195
442.500000	-1652.000000	1726.073242	2186.486572
442.500000	-1652.000000	1725.088867	2153.011719
442.500000	-1652.000000	1724.103516	2231.240234
442.500000	-1652.000000	1723.119141	2159.702393
442.500000	-1652.000000	1722.133789	2113.568115
442.500000	-1652.000000	1721.147461	2229.805908
442.500000	-1652.000000	1720.162109	2122.807373
442.500000	-1652.000000	1719.175781	2208.565186
442.500000	-1652.000000	1718.190430	2152.319580
442.500000	-1652.000000	1717.204102	2172.135254
442.500000	-1652.000000	1716.216797	2191.942383
442.500000	-1652.000000	1715.230469	2150.937256
442.500000	-1652.000000	1714.243164	2180.872070
442.500000	-1652.000000	1713.255859	2203.197021
442.500000	-1652.000000	1712.268555	2222.980469
442.500000	-1652.000000	1711.281250	2146.565186
442.500000	-1652.000000	1710.292969	2254.929688
442.500000	-1652.000000	1709.305664	2236.735596
442.500000	-1652.000000	1708.317383	2198.311768
442.500000	-1652.000000	1707.328125	2253.483154
442.500000	-1652.000000	1706.339844	2268.173096
442.500000	-1652.000000	1705.350586	2247.463379
442.500000	-1652.000000	1704.362305	2269.730957
442.500000	-1652.000000	1703.373047	2324.839844
442.500000	-1652.000000	1702.382813	2294.025391
442.500000	-1652.000000	1701.393555	2351.631348
442.500000	-1652.000000	1700.403320	2353.654297
442.500000	-1652.000000	1699.413086	2454.145264
442.500000	-1652.000000	1698.422852	2423.329346
442.500000	-1652.000000	1697.432617	2453.096924
442.500000	-1652.000000	1696.441406	2497.991211
442.500000	-1652.000000	1695.450195	2583.229004
442.500000	-1652.000000	1694.458984	2527.190430
442.500000	-1652.000000	1693.467773	2564.475098
442.500000	-1652.000000	1692.476563	2679.896729
442.500000	-1652.000000	1691.484375	2611.270508
442.500000	-1652.000000	1690.492188	2678.753174
442.500000	-1652.000000	1689.500000	2713.454102
442.500000	-1652.000000	1688.507813	2733.026367
442.500000	-1652.000000	1687.514648	2732.443604
442.500000	-1652.000000	1686.521484	2724.307129
442.500000	-1652.000000	1685.528320	2806.797363
442.500000	-1652.000000	1684.535156	2738.246094
442.500000	-1652.000000	1683.541992	2767.856934
442.500000	-1652.000000	1682.547852	2867.894775
442.500000	-1652.000000	1681.553711	2804.404297
442.500000	-1652.000000	1680.559570	2821.408936
442.500000	-1652.000000	1679.565430	2863.547119
442.500000	-1652.000000	1678.571289	2895.613037
442.500000	-1652.000000	1677.576172	2945.256592
442.500000	-1652.000000	1676.581055	2881.816895
442.500000	-1652.000000	1675.585938	2886.226807
442.500000	-1652.000000	1674.590820	2953.420166
442.500000	-1652.000000	1673.594727	2990.454346
442.500000	-1652.000000	1672.598633	2992.327881
442.500000	-1652.000000	1671.602539	2936.474854
442.500000	-1652.000000	1670.606445	2993.562744
442.500000	-1652.000000	1669.610352	3015.504150
442.500000	-1652.000000	1668.613281	3034.927734
442.500000	-1652.000000	1667.616211	3024.250977
442.500000	-1652.000000	1666.619141	2945.885986
442.500000	-1652.000000	1665.622070	2962.805176
442.500000	-1652.000000	1664.624023	3054.899414
442.500000	-1652.000000	1663.625977	2916.444824
442.500000	-1652.000000	1662.627930	2870.734131
442.500000	-1652.000000	1661.629883	2910.194824
442.500000	-1652.000000	1660.631836	2924.599365
442.500000	-1652.000000	1659.632813	2873.909180
442.500000	-1652.000000	1658.633789	2875.800781
442.500000	-1652.000000	1657.634766	2880.193848
442.500000	-1652.000000	1656.635742	2822.039551
442.500000	-1652.000000	1655.636719	2826.442139
442.500000	-1652.000000	1654.636719	2765.823242
442.500000	-1652.000000	1653.636719	2787.737061
442.500000	-1652.000000	1652.636719	2772.146240
442.500000	-1652.000000	1651.636719	2731.570557
442.500000	-1652.000000	1650.635742	2815.942871
442.500000	-1652.000000	1649.634766	2817.842529
442.500000	-1652.000000	1648.633789	2809.750732
442.500000	-1652.000000	1647.632813	2796.668457
442.500000	-1652.000000	1646.631836	2918.402588
442.500000	-1652.000000	1645.629883	2850.391357
442.500000	-1652.000000	1644.627930	2917.162354
442.500000	-1652.000000	1643.625977	3016.338623
442.500000	-1652.000000	1642.624023	3075.562744
442.500000	-1652.000000	1641.621094	3052.464844
442.500000	-1652.000000	1640.618164	3141.575684
442.500000	-1652.000000	1639.615234	3046.182617
442.500000	-1652.000000	1638.612305	3115.318604
442.500000	-1652.000000	1637.609375	3079.772705
442.500000	-1652.000000	1636.605469	2979.470947
442.500000	-1652.000000	1635.601563	3043.595459
442.500000	-1652.000000	1634.597656	2993.146240
442.500000	-1652.000000	1633.593750	2825.707031
442.500000	-1652.000000	1632.589844	2837.552246
442.500000	-1652.000000	1631.584961	2817.041504
442.500000	-1652.000000	1630.580078	2759.218750
442.500000	-1652.000000	1629.575195	2631.770752
442.500000	-1652.000000	1628.569336	2623.750977
442.500000	-1652.000000	1627.564453	2605.789063
442.500000	-1652.000000	1626.558594	2610.207764
442.500000	-1652.000000	1625.552734	2592.255859
442.500000	-1652.000000	1624.546875	2494.796387
442.500000	-1652.000000	1623.540039	2457.001953
442.500000	-1652.000000	1622.534180	2501.188965
442.500000	-1652.000000	1621.527344	2485.758301
442.500000	-1652.000000	1620.520508	2467.851563
442.500000	-1652.000000	1619.512695	2457.398926
442.500000	-1652.000000	1618.505859	2432.060547
442.500000	-1652.000000	1617.498047	2471.243164
442.500000	-1652.000000	1616.490234	2351.648193
442.500000	-1652.000000	1615.482422	2423.072510
442.500000	-1652.000000	1614.473633	2464.711426
442.500000	-1652.000000	1613.465820	2454.272217
442.500000	-1652.000000	1612.457031	2409.137695
442.500000	-1652.000000	1611.448242	2356.588379
442.500000	-1652.000000	1610.438477	2400.683350
442.500000	-1652.000000	1609.429688	2526.498779
442.500000	-1652.000000	1608.419922	2412.046875
442.500000	-1652.000000	1607.410156	2498.192139
442.500000	-1652.000000	1606.400391	2539.743652
442.500000	-1652.000000	1605.390625	2640.674072
442.500000	-1652.000000	1604.379883	2632.690918
442.500000	-1652.000000	1603.369141	2750.875488
442.500000	-1652.000000	1602.358398	2730.505615
442.500000	-1652.000000	1601.347656	2715.089844
442.500000	-1652.000000	1600.335938	2692.263916
442.500000	-1652.000000	1599.325195	2570.579102
442.500000	-1652.000000	1598.313477	2525.552490
442.500000	-1652.000000	1597.300781	2502.781006
442.500000	-1652.000000	1596.289063	2423.205566
442.500000	-1652.000000	1595.276367	2437.509521
442.500000	-1652.000000	1594.264648	2424.646973
442.500000	-1652.000000	1593.251953	2431.538574
442.500000	-1652.000000	1592.238281	2411.278564
442.500000	-1652.000000	1591.225586	2413.234619
442.500000	-1652.000000	1590.211914	2370.783936
442.500000	-1652.000000	1589.198242	2449.208252
442.500000	-1652.000000	1588.184570	2396.903809
442.500000	-1652.000000	1587.170898	2435.842285
442.500000	-1652.000000	1586.156250	2339.194580
442.500000	-1652.000000	1585.141602	2407.701172
442.500000	-1652.000000	1584.126953	2392.407227
442.500000	-1652.000000	1583.112305	2411.606689
442.500000	-1652.000000	1582.097656	2356.913330
442.500000	-1652.000000	1581.082031	2403.197021
442.500000	-1652.000000	1580.066406	2301.754639
442.500000	-1652.000000	1579.050781	2478.476318
442.500000	-1652.000000	1578.035156	2406.589600
442.500000	-1652.000000	1577.018555	2295.370117
442.500000	-1652.000000	1576.001953	2366.214111
442.500000	-1652.000000	1574.985352	2412.436279
442.500000	-1652.000000	1573.968750	2330.789551
442.500000	-1652.000000	1572.952148	2433.536133
442.500000	-1652.000000	1571.934570	2425.647217
442.500000	-1652.000000	1570.916992	2341.592285
442.500000	-1652.000000	1569.899414	2429.531494
442.500000	-1652.000000	1568.881836	2370.071289
442.500000	-1652.000000	1567.863281	2359.746582
442.500000	-1652.000000	1566.844727	2398.525879
442.500000	-1652.000000	1565.826172	2385.744629
442.500000	-1652.000000	1564.807617	2363.153076
442.500000	-1652.000000	1563.789063	2335.664063
442.500000	-1652.000000	1562.769531	2357.244873
442.500000	-1652.000000	1561.750000	2403.340088
442.500000	-1652.000000	1560.730469	2383.215332
442.500000	-1652.000000	1559.710938	2372.904297
442.500000	-1652.000000	1558.690430	2396.909180
442.500000	-1652.000000	1557.669922	2342.493896
442.500000	-1652.000000	1556.649414	2417.940186
442.500000	-1652.000000	1555.628906	2388.035889
442.500000	-1652.000000	1554.608398	2443.850586
442.500000	-1652.000000	1553.586914	2367.436768
442.500000	-1652.000000	1552.565430	2276.369141
442.500000	-1652.000000	1551.543945	2388.456787
442.500000	-1652.000000	1550.522461	2424.650146
442.500000	-1652.000000	1549.500000	2340.966309
442.500000	-1652.000000	1548.477539	2489.653076
442.500000	-1652.000000	1547.455078	2450.002930
442.500000	-1652.000000	1546.432617	2447.038330
442.500000	-1652.000000	1545.410156	2338.979492
442.500000	-1652.000000	1544.386719	2458.217285
442.500000	-1652.000000	1543.363281	2401.505615
442.500000	-1652.000000	1542.339844	2369.243164
442.500000	-1652.000000	1541.316406	2395.602051
442.500000	-1652.000000	1540.291992	2331.614990
442.500000	-1652.000000	1539.268555	2387.261963
442.500000	-1652.000000	1538.244141	2372.112549
442.500000	-1652.000000	1537.218750	2371.608887
442.500000	-1652.000000	1536.194336	2371.105225
442.500000	-1652.000000	1535.168945	2443.768311
442.500000	-1652.000000	1534.143555	2394.481934
442.500000	-1652.000000	1533.118164	2362.281250
442.500000	-1652.000000	1532.092773	2359.342285
442.500000	-1652.000000	1531.066406	2431.945557
442.500000	-1652.000000	1530.041016	2404.629639
442.500000	-1652.000000	1529.014648	2374.889404
442.500000	-1652.000000	1527.987305	2354.902832
442.500000	-1652.000000	1526.960938	2361.706787
442.500000	-1652.000000	1525.933594	2329.559814
442.500000	-1652.000000	1524.906250	2343.667236
442.500000	-1652.000000	1523.878906	2447.796631
442.500000	-1652.000000	1522.851563	2342.671143
442.500000	-1652.000000	1521.823242	2407.841553
442.500000	-1652.000000	1520.795898	2385.445068
442.500000	-1652.000000	1519.767578	2414.111572
442.500000	-1652.000000	1518.738281	2457.349365
442.500000	-1652.000000	1517.709961	2347.472656
442.500000	-1652.000000	1516.680664	2393.135498
442.500000	-1652.000000	1515.651367	2368.336182
442.500000	-1652.000000	1514.622070	2372.689697
442.500000	-1652.000000	1513.592773	2406.177490
442.500000	-1652.000000	1512.562500	2393.528076
442.500000	-1652.000000	1511.532227	2499.806885
442.500000	-1652.000000	1510.501953	2462.877930
442.500000	-1652.000000	1509.471680	2372.593262
442.500000	-1652.000000	1508.441406	2437.575684
442.500000	-1652.000000	1507.410156	2398.258301
442.500000	-1652.000000	1506.378906	2487.451416
442.500000	-1652.000000	1505.347656	2377.846436
442.500000	-1652.000000	1504.316406	2435.501709
442.500000	-1652.000000	1503.284180	2527.052246
442.500000	-1652.000000	1502.251953	2444.154297
442.500000	-1652.000000	1501.219727	2438.790527
442.500000	-1652.000000	1500.187500	2433.428711
442.500000	-1652.000000	1499.154297	2425.648193
442.500000	-1652.000000	1498.122070	2456.595459
442.500000	-1652.000000	1497.088867	2528.665527
442.500000	-1652.000000	1496.054688	2513.611328
442.500000	-1652.000000	1495.021484	2617.082031
442.500000	-1652.000000	1493.987305	2575.414795
442.500000	-1652.000000	1492.954102	2567.612793
442.500000	-1652.000000	1491.918945	2610.575439
442.500000	-1652.000000	1490.884766	2585.852295
442.500000	-1652.000000	1489.850586	2619.127686
442.500000	-1652.000000	1488.815430	2637.894775
442.500000	-1652.000000	1487.780273	2656.653564
442.500000	-1652.000000	1486.745117	2656.087402
442.500000	-1652.000000	1485.708984	2643.450439
442.500000	-1652.000000	1484.673828	2688.745117
442.500000	-1652.000000	1483.637695	2743.672852
442.500000	-1652.000000	1482.601563	2735.849854
442.500000	-1652.000000	1481.564453	2701.497803
442.500000	-1652.000000	1480.528320	2739.506104
442.500000	-1652.000000	1479.491211	2869.116943
442.500000	-1652.000000	1478.454102	2854.041748
442.500000	-1652.000000	1477.416992	2918.502686
442.500000	-1652.000000	1476.378906	2893.784912
442.500000	-1652.000000	1475.341797	3049.750244
442.500000	-1652.000000	1474.303711	2926.268066
442.500000	-1652.000000	1473.264648	3019.552979
442.500000	-1652.000000	1472.226563	3134.464600
442.500000	-1652.000000	1471.187500	3071.215820
442.500000	-1652.000000	1470.149414	3171.628418
442.500000	-1652.000000	1469.110352	3180.574707
442.500000	-1652.000000	1468.070313	3333.838623
442.500000	-1652.000000	1467.031250	3224.908203
442.500000	-1652.000000	1465.991211	3375.692383
442.500000	-1652.000000	1464.951172	3377.375000
442.500000	-1652.000000	1463.911133	3374.250000
442.500000	-1652.000000	1462.870117	3481.654541
442.500000	-1652.000000	1461.830078	3435.266846
442.500000	-1652.000000	1460.789063	3482.567871
442.500000	-1652.000000	1459.748047	3510.638428
442.500000	-1652.000000	1458.706055	3601.115967
442.500000	-1652.000000	1457.665039	3636.349121
442.500000	-1652.000000	1456.623047	3652.369385
442.500000	-1652.000000	1455.581055	3670.781494
442.500000	-1652.000000	1454.539063	3614.826172
442.500000	-1652.000000	1453.496094	3587.672607
442.500000	-1652.000000	1452.454102	3685.208984
442.500000	-1652.000000	1451.411133	3684.420166
442.500000	-1652.000000	1450.368164	3760.323730
442.500000	-1652.000000	1449.324219	3797.856689
442.500000	-1652.000000	1448.281250	3636.537354
442.500000	-1652.000000	1447.237305	3635.758545
442.500000	-1652.000000	1446.193359	3532.012695
442.500000	-1652.000000	1445.148438	3588.713623
442.500000	-1652.000000	1444.104492	3477.840820
442.500000	-1652.000000	1443.059570	3572.817383
442.500000	-1652.000000	1442.014648	3440.462402
442.500000	-1652.000000	1440.969727	3509.093506
442.500000	-1652.000000	1439.923828	3400.723145
442.500000	-1652.000000	1438.878906	3328.264160
442.500000	-1652.000000	1437.833008	3368.188477
442.500000	-1652.000000	1436.787109	3307.716797
442.500000	-1652.000000	1435.740234	3271.165283
442.500000	-1652.000000	1434.694336	3270.463623
442.500000	-1652.000000	1433.647461	3226.770020
442.500000	-1652.000000	1432.600586	3230.853271
442.500000	-1652.000000	1431.552734	3180.024170
442.500000	-1652.000000	1430.505859	3260.495605
442.500000	-1652.000000	1429.458008	3228.772461
442.500000	-1652.000000	1428.410156	3268.638916
442.500000	-1652.000000	1427.362305	3339.497314
442.500000	-1652.000000	1426.313477	3322.085938
442.500000	-1652.000000	1425.265625	3242.689209
442.500000	-1652.000000	1424.216797	3244.376221
442.500000	-1652.000000	1423.167969	3179.329590
442.500000	-1652.000000	1422.118164	3207.239502
442.500000	-1652.000000	1421.069336	3282.782959
442.500000	-1652.000000	1420.019531	3189.187988
442.500000	-1652.000000	1418.969727	3174.214355
442.500000	-1652.000000	1417.919922	3121.155273
442.500000	-1652.000000	1416.869141	3194.270752
442.500000	-1652.000000	1415.818359	3307.809814
442.500000	-1652.000000	1414.767578	3276.168213
442.500000	-1652.000000	1413.716797	3158.906738
442.500000	-1652.000000	1412.666016	3189.143066
442.500000	-1652.000000	1411.614258	3295.451416
442.500000	-1652.000000	1410.562500	3270.969971
442.500000	-1652.000000	1409.510742	3215.602295
442.500000	-1652.000000	1408.458984	3264.808105
442.500000	-1652.000000	1407.406250	3363.880615
442.500000	-1652.000000	1406.353516	3270.526367
442.500000	-1652.000000	1405.300781	3395.674805
442.500000	-1652.000000	1404.248047	3456.668945
442.500000	-1652.000000	1403.194336	3425.066895
442.500000	-1652.000000	1402.140625	3379.239746
442.500000	-1652.000000	1401.086914	3276.491211
442.500000	-1652.000000	1400.033203	3216.483154
442.500000	-1652.000000	1398.979492	3372.309570
442.500000	-1652.000000	1397.924805	3309.935059
442.500000	-1652.000000	1396.870117	3294.997314
442.500000	-1652.000000	1395.815430	3175.786377
442.500000	-1652.000000	1394.759766	3189.317139
442.500000	-1652.000000	1393.705078	3160.200439
442.500000	-1652.000000	1392.649414	3187.938965
442.500000	-1652.000000	1391.593750	3265.392090
442.500000	-1652.000000	1390.537109	3151.049561
442.500000	-1652.000000	1389.481445	3100.663086
442.500000	-1652.000000	1388.424805	3194.648682
442.500000	-1652.000000	1387.368164	3186.859863
442.500000	-1652.000000	1386.311523	3233.478027
442.500000	-1652.000000	1385.253906	3157.102539
442.500000	-1652.000000	1384.197266	3087.852783
442.500000	-1652.000000	1383.139648	3177.010498
442.500000	-1652.000000	1382.081055	3275.582520
442.500000	-1652.000000	1381.023438	3286.687256
442.500000	-1652.000000	1379.964844	3245.816162
442.500000	-1652.000000	1378.906250	3221.494873
442.500000	-1652.000000	1377.847656	3140.512939
442.500000	-1652.000000	1376.789063	3139.832031
442.500000	-1652.000000	1375.729492	3068.343506
442.500000	-1652.000000	1374.669922	3173.866943
442.500000	-1652.000000	1373.610352	3090.605225
442.500000	-1652.000000	1372.550781	3132.391846
442.500000	-1652.000000	1371.490234	3112.846436
442.500000	-1652.000000	1370.429688	3041.439697
442.500000	-1652.000000	1369.369141	2998.349854
442.500000	-1652.000000	1368.308594	3035.405762
442.500000	-1652.000000	1367.248047	3070.089111
442.500000	-1652.000000	1366.186523	2935.149658
442.500000	-1652.000000	1365.125000	2913.315674
442.500000	-1652.000000	1364.063477	2957.420410
442.500000	-1652.000000	1363.000977	2980.318848
442.500000	-1652.000000	1361.939453	2944.366699
442.500000	-1652.000000	1360.876953	2960.197998
442.500000	-1652.000000	1359.813477	2978.374756
442.500000	-1652.000000	1358.750977	2987.135254
442.500000	-1652.000000	1357.687500	2986.485107
442.500000	-1652.000000	1356.625000	3025.802979
442.500000	-1652.000000	1355.560547	3032.195801
442.500000	-1652.000000	1354.497070	3024.485352
442.500000	-1652.000000	1353.432617	3052.020752
442.500000	-1652.000000	1352.369141	3046.657715
442.500000	-1652.000000	1351.304688	3024.857422
442.500000	-1652.000000	1350.239258	3071.157715
442.500000	-1652.000000	1349.174805	3108.047607
442.500000	-1652.000000	1348.109375	3126.145508
442.500000	-1652.000000	1347.043945	3146.581543
442.500000	-1652.000000	1345.978516	3164.662354
442.500000	-1652.000000	1344.912109	3187.426025
442.500000	-1652.000000	1343.846680	3076.519531
442.500000	-1652.000000	1342.780273	3176.656982
442.500000	-1652.000000	1341.712891	3145.492676
442.500000	-1652.000000	1340.646484	3198.703125
442.500000	-1652.000000	1339.579102	3188.632813
442.500000	-1652.000000	1338.511719	3134.061768
442.500000	-1652.000000	1337.444336	3133.376709
442.500000	-1652.000000	1336.376953	3071.817139
442.500000	-1652.000000	1335.308594	3103.916748
442.500000	-1652.000000	1334.240234	3121.959961
442.500000	-1652.000000	1333.171875	3266.343750
442.500000	-1652.000000	1332.103516	3172.057861
442.500000	-1652.000000	1331.034180	3077.812744
442.500000	-1652.000000	1329.964844	3098.183105
442.500000	-1652.000000	1328.895508	3216.729004
442.500000	-1652.000000	1327.826172	3223.035889
442.500000	-1652.000000	1326.755859	3227.003174
442.500000	-1652.000000	1325.686523	3249.657715
442.500000	-1652.000000	1324.616211	3164.860352
442.500000	-1652.000000	1323.544922	3222.545654
442.500000	-1652.000000	1322.474609	3235.846680
442.500000	-1652.000000	1321.403320	3214.129150
442.500000	-1652.000000	1320.332031	3269.431152
442.500000	-1652.000000	1319.260742	3299.043945
442.500000	-1652.000000	1318.188477	3170.025635
442.500000	-1652.000000	1317.117188	3162.333008
442.500000	-1652.000000	1316.044922	3196.611816
442.500000	-1652.000000	1314.971680	3275.166016
442.500000	-1652.000000	1313.899414	3227.834717
442.500000	-1652.000000	1312.826172	3201.494385
442.500000	-1652.000000	1311.752930	3158.858398
442.500000	-1652.000000	1310.679688	3176.795654
442.500000	-1652.000000	1309.606445	3215.681152
442.500000	-1652.000000	1308.532227	3303.437500
442.500000	-1652.000000	1307.458008	3146.768066
442.500000	-1652.000000	1306.383789	3257.770020
442.500000	-1652.000000	1305.309570	3210.522949
442.500000	-1652.000000	1304.234375	3193.533691
442.500000	-1652.000000	1303.159180	3295.149170
442.500000	-1652.000000	1302.083984	3280.472900
442.500000	-1652.000000	1301.008789	3309.966797
442.500000	-1652.000000	1299.932617	3344.095215
442.500000	-1652.000000	1298.856445	3180.719971
442.500000	-1652.000000	1297.780273	3238.089600
442.500000	-1652.000000	1296.704102	3246.664063
442.500000	-1652.000000	1295.626953	3345.786621
442.500000	-1652.000000	1294.549805	3342.726074
442.500000	-1652.000000	1293.472656	3471.953613
442.500000	-1652.000000	1292.395508	3403.896973
442.500000	-1652.000000	1291.318359	3349.789063
442.500000	-1652.000000	1290.240234	3509.078613
442.500000	-1652.000000	1289.162109	3482.795898
442.500000	-1652.000000	1288.083008	3482.025146
442.500000	-1652.000000	1287.004883	3520.656006
442.500000	-1652.000000	1285.925781	3554.634766
442.500000	-1652.000000	1284.846680	3519.096680
442.500000	-1652.000000	1283.767578	3458.095703
442.500000	-1652.000000	1282.687500	3517.537109
442.500000	-1652.000000	1281.608398	3461.193115
442.500000	-1652.000000	1280.528320	3601.620117
442.500000	-1652.000000	1279.447266	3547.595703
442.500000	-1652.000000	1278.367188	3602.335938
442.500000	-1652.000000	1277.286133	3580.718262
442.500000	-1652.000000	1276.205078	3579.923096
442.500000	-1652.000000	1275.124023	3604.561279
442.500000	-1652.000000	1274.042969	3626.876221
442.500000	-1652.000000	1272.960938	3706.957764
442.500000	-1652.000000	1271.878906	3657.612061
442.500000	-1652.000000	1270.796875	3707.619629
442.500000	-1652.000000	1269.713867	3646.747314
442.500000	-1652.000000	1268.631836	3710.588379
442.500000	-1652.000000	1267.548828	3695.911621
442.500000	-1652.000000	1266.464844	3741.248535
442.500000	-1652.000000	1265.381836	3742.722900
442.500000	-1652.000000	1264.297852	3661.145508
442.500000	-1652.000000	1263.213867	3704.152100
442.500000	-1652.000000	1262.129883	3691.796875
442.500000	-1652.000000	1261.045898	3748.609131
442.500000	-1652.000000	1259.960938	3586.429932
442.500000	-1652.000000	1258.875977	3744.632568
442.500000	-1652.000000	1257.791016	3697.719238
442.500000	-1652.000000	1256.706055	3733.747559
442.500000	-1652.000000	1255.620117	3650.011475
442.500000	-1652.000000	1254.534180	3614.661133
442.500000	-1652.000000	1253.448242	3781.885986
442.500000	-1652.000000	1252.361328	3771.835449
442.500000	-1652.000000	1251.275391	3770.992188
442.500000	-1652.000000	1250.188477	3756.346924
442.500000	-1652.000000	1249.101563	3822.199463
442.500000	-1652.000000	1248.013672	3763.863037
442.500000	-1652.000000	1246.926758	3907.840332
442.500000	-1652.000000	1245.838867	3946.034912
442.500000	-1652.000000	1244.750977	3915.280762
442.500000	-1652.000000	1243.662109	3916.700439
442.500000	-1652.000000	1242.573242	3830.845703
442.500000	-1652.000000	1241.485352	3763.398193
442.500000	-1652.000000	1240.395508	3941.614014
442.500000	-1652.000000	1239.306641	3855.809814
442.500000	-1652.000000	1238.216797	3721.857178
442.500000	-1652.000000	1237.126953	3773.785645
442.500000	-1652.000000	1236.037109	3722.479248
442.500000	-1652.000000	1234.947266	3636.799561
442.500000	-1652.000000	1233.856445	3608.471436
442.500000	-1652.000000	1232.765625	3669.545166
442.500000	-1652.000000	1231.674805	3671.011475
442.500000	-1652.000000	1230.583984	3612.910400
442.500000	-1652.000000	1229.492188	3612.097412
442.500000	-1652.000000	1228.400391	3647.923828
442.500000	-1652.000000	1227.308594	3505.156006
442.500000	-1652.000000	1226.216797	3454.009766
442.500000	-1652.000000	1225.124023	3377.713379
442.500000	-1652.000000	1224.031250	3344.921143
442.500000	-1652.000000	1222.938477	3332.729980
442.500000	-1652.000000	1221.844727	3400.584473
442.500000	-1652.000000	1220.751953	3308.362793
442.500000	-1652.000000	1219.658203	3316.759277
442.500000	-1652.000000	1218.564453	3224.597168
442.500000	-1652.000000	1217.469727	3326.685303
442.500000	-1652.000000	1216.375000	3236.846191
442.500000	-1652.000000	1215.280273	3391.411621
442.500000	-1652.000000	1214.185547	3397.494385
442.500000	-1652.000000	1213.090820	3364.767578
442.500000	-1652.000000	1211.995117	3277.281494
442.500000	-1652.000000	1210.899414	3404.315430
442.500000	-1652.000000	1209.803711	3351.077148
442.500000	-1652.000000	1208.707031	3434.703369
442.500000	-1652.000000	1207.611328	3468.127441
442.500000	-1652.000000	1206.514648	3496.976807
442.500000	-1652.000000	1205.416992	3405.018799
442.500000	-1652.000000	1204.320313	3420.196777
442.500000	-1652.000000	1203.222656	3510.544434
442.500000	-1652.000000	1202.125000	3386.758301
442.500000	-1652.000000	1201.027344	3467.963623
442.500000	-1652.000000	1199.928711	3430.751221
442.500000	-1652.000000	1198.831055	3452.731934
442.500000	-1652.000000	1197.732422	3481.528564
442.500000	-1652.000000	1196.632813	3398.837402
442.500000	-1652.000000	1195.534180	3386.691895
442.500000	-1652.000000	1194.434570	3381.373291
442.500000	-1652.000000	1193.334961	3444.260010
442.500000	-1652.000000	1192.235352	3329.829590
442.500000	-1652.000000	1191.134766	3444.963623
442.500000	-1652.000000	1190.034180	3357.846924
442.500000	-1652.000000	1188.933594	3413.865723
442.500000	-1652.000000	1187.833008	3340.420166
442.500000	-1652.000000	1186.731445	3414.579102
442.500000	-1652.000000	1185.630859	3404.720459
442.500000	-1652.000000	1184.528320	3354.018799
442.500000	-1652.000000	1183.426758	3396.359619
442.500000	-1652.000000	1182.324219	3359.291504
442.500000	-1652.000000	1181.222656	3422.020508
442.500000	-1652.000000	1180.119141	3414.436523
442.500000	-1652.000000	1179.016602	3508.857178
442.500000	-1652.000000	1177.913086	3385.680420
442.500000	-1652.000000	1176.809570	3507.251709
442.500000	-1652.000000	1175.706055	3431.698730
442.500000	-1652.000000	1174.602539	3494.322266
442.500000	-1652.000000	1173.498047	3378.052246
442.500000	-1652.000000	1172.393555	3420.286133
442.500000	-1652.000000	1171.289063	3399.134277
442.500000	-1652.000000	1170.184570	3445.868164
442.500000	-1652.000000	1169.079102	3474.483887
442.500000	-1652.000000	1167.973633	3403.579346
442.500000	-1652.000000	1166.868164	3490.976563
442.500000	-1652.000000	1165.761719	3499.216553
442.500000	-1652.000000	1164.655273	3498.412354
442.500000	-1652.000000	1163.548828	3481.791992
442.500000	-1652.000000	1162.442383	3483.250244
442.500000	-1652.000000	1161.334961	3509.549561
442.500000	-1652.000000	1160.228516	3547.125732
442.500000	-1652.000000	1159.121094	3514.706055
442.500000	-1652.000000	1158.012695	3529.694336
442.500000	-1652.000000	1156.905273	3492.780029
442.500000	-1652.000000	1155.796875	3586.718262
442.500000	-1652.000000	1154.688477	3468.616943
442.500000	-1652.000000	1153.579102	3386.645508
442.500000	-1652.000000	1152.470703	3421.931641
442.500000	-1652.000000	1151.361328	3459.454834
442.500000	-1652.000000	1150.251953	3424.857910
442.500000	-1652.000000	1149.141602	3545.711182
442.500000	-1652.000000	1148.032227	3486.335693
442.500000	-1652.000000	1146.921875	3379.702637
442.500000	-1652.000000	1145.810547	3457.709961
442.500000	-1652.000000	1144.700195	3389.392090
442.500000	-1652.000000	1143.588867	3521.361572
442.500000	-1652.000000	1142.477539	3529.544434
442.500000	-1652.000000	1141.366211	3573.707275
442.500000	-1652.000000	1140.253906	3494.181396
442.500000	-1652.000000	1139.142578	3401.203613
442.500000	-1652.000000	1138.029297	3431.879395
442.500000	-1652.000000	1136.916992	3458.046387
442.500000	-1652.000000	1135.804688	3598.768311
442.500000	-1652.000000	1134.691406	3404.785156
442.500000	-1652.000000	1133.578125	3403.994141
442.500000	-1652.000000	1132.463867	3488.507568
442.500000	-1652.000000	1131.350586	3483.208008
442.500000	-1652.000000	1130.236328	3419.571045
442.500000	-1652.000000	1129.121094	3459.154541
442.500000	-1652.000000	1128.006836	3581.701660
442.500000	-1652.000000	1126.891602	3580.867676
442.500000	-1652.000000	1125.776367	3689.877930
442.500000	-1652.000000	1124.661133	3574.716797
442.500000	-1652.000000	1123.545898	3605.252930
442.500000	-1652.000000	1122.429688	3555.128662
442.500000	-1652.000000	1121.313477	3659.561768
442.500000	-1652.000000	1120.196289	3669.903076
442.500000	-1652.000000	1119.080078	3581.741211
442.500000	-1652.000000	1117.962891	3607.761230
442.500000	-1652.000000	1116.845703	3682.994629
442.500000	-1652.000000	1115.727539	3675.422363
442.500000	-1652.000000	1114.610352	3687.981689
442.500000	-1652.000000	1113.492188	3653.579102
442.500000	-1652.000000	1112.374023	3708.610107
442.500000	-1652.000000	1111.254883	3730.090820
442.500000	-1652.000000	1110.136719	3662.185059
442.500000	-1652.000000	1109.017578	3712.705811
442.500000	-1652.000000	1107.897461	3798.936279
442.500000	-1652.000000	1106.778320	3947.644775
442.500000	-1652.000000	1105.658203	3794.921631
442.500000	-1652.000000	1104.538086	3916.778564
442.500000	-1652.000000	1103.417969	3991.721680
442.500000	-1652.000000	1102.296875	3830.170898
442.500000	-1652.000000	1101.175781	3914.018555
442.500000	-1652.000000	1100.054688	3846.207520
442.500000	-1652.000000	1098.933594	3952.302490
442.500000	-1652.000000	1097.811523	4176.464844
442.500000	-1652.000000	1096.689453	4032.882080
442.500000	-1652.000000	1095.567383	4087.621826
442.500000	-1652.000000	1094.444336	4079.977539
442.500000	-1652.000000	1093.321289	4127.999512
442.500000	-1652.000000	1092.198242	4075.827637
442.500000	-1652.000000	1091.075195	4208.395508
442.500000	-1652.000000	1089.952148	4185.152344
442.500000	-1652.000000	1088.828125	4319.854492
442.500000	-1652.000000	1087.704102	4363.312500
442.500000	-1652.000000	1086.579102	4493.460938
442.500000	-1652.000000	1085.454102	4476.838379
442.500000	-1652.000000	1084.330078	4540.227539
442.500000	-1652.000000	1083.204102	4576.923828
442.500000	-1652.000000	1082.079102	4749.100098
442.500000	-1652.000000	1080.953125	4763.520508
442.500000	-1652.000000	1079.827148	4857.861816
442.500000	-1652.000000	1078.701172	5045.385254
442.500000	-1652.000000	1077.574219	4968.736816
442.500000	-1652.000000	1076.447266	5034.117676
442.500000	-1652.000000	1075.320313	5081.721191
442.500000	-1652.000000	1074.193359	5277.880859
442.500000	-1652.000000	1073.065430	5298.797852
442.500000	-1652.000000	1071.937500	5155.679688
442.500000	-1652.000000	1070.809570	5214.286621
442.500000	-1652.000000	1069.680664	5184.245117
442.500000	-1652.000000	1068.552734	5096.627930
442.500000	-1652.000000	1067.423828	5066.626953
442.500000	-1652.000000	1066.293945	5010.072754
442.500000	-1652.000000	1065.165039	5053.146484
442.500000	-1652.000000	1064.035156	4837.295410
442.500000	-1652.000000	1062.905273	4822.867676
442.500000	-1652.000000	1061.774414	4916.824707
442.500000	-1652.000000	1060.643555	4836.045410
442.500000	-1652.000000	1059.512695	4578.444336
442.500000	-1652.000000	1058.381836	4519.885254
442.500000	-1652.000000	1057.250977	4465.772461
442.500000	-1652.000000	1056.119141	4340.992188
442.500000	-1652.000000	1054.987305	4328.910645
442.500000	-1652.000000	1053.854492	4416.198730
442.500000	-1652.000000	1052.722656	4375.405273
442.500000	-1652.000000	1051.589844	4416.291016
442.500000	-1652.000000	1050.457031	4404.200195
442.500000	-1652.000000	1049.323242	4411.968262
442.500000	-1652.000000	1048.189453	4399.882813
442.500000	-1652.000000	1047.055664	4359.138672
442.500000	-1652.000000	1045.921875	4393.362793
442.500000	-1652.000000	1044.787109	4566.413086
442.500000	-1652.000000	1043.653320	4505.825684
442.500000	-1652.000000	1042.517578	4524.567871
442.500000	-1652.000000	1041.382813	4556.514160
442.500000	-1652.000000	1040.247070	4595.049316
442.500000	-1652.000000	1039.111328	4552.120605
442.500000	-1652.000000	1037.975586	4647.854492
442.500000	-1652.000000	1036.838867	4545.527832
442.500000	-1652.000000	1035.703125	4698.406250
442.500000	-1652.000000	1034.566406	4796.232422
442.500000	-1652.000000	1033.428711	4707.132813
442.500000	-1652.000000	1032.291016	4684.016602
442.500000	-1652.000000	1031.154297	4722.440918
442.500000	-1652.000000	1030.015625	4752.057617
442.500000	-1652.000000	1028.877930	4759.695313
442.500000	-1652.000000	1027.739258	4664.120117
442.500000	-1652.000000	1026.600586	4700.313477
442.500000	-1652.000000	1025.460938	4745.268066
442.500000	-1652.000000	1024.322266	4581.739746
442.500000	-1652.000000	1023.182617	4639.862305
442.500000	-1652.000000	1022.042969	4570.747070
442.500000	-1652.000000	1020.902344	4510.435059
442.500000	-1652.000000	1019.761719	4614.566406
442.500000	-1652.000000	1018.621094	4481.947266
442.500000	-1652.000000	1017.480469	4535.637207
442.500000	-1652.000000	1016.338867	4464.436523
442.500000	-1652.000000	1015.197266	4491.822754
442.500000	-1652.000000	1014.055664	4317.757813
442.500000	-1652.000000	1012.914063	4452.425781
442.500000	-1652.000000	1011.771484	4414.138672
442.500000	-1652.000000	1010.628906	4434.943359
442.500000	-1652.000000	1009.486328	4468.861816
442.500000	-1652.000000	1008.342773	4526.818359
442.500000	-1652.000000	1007.199219	4796.820313
442.500000	-1652.000000	1006.055664	4863.410645
442.500000	-1652.000000	1004.911133	5314.574707
442.500000	-1652.000000	1003.767578	5665.020020
442.500000	-1652.000000	1002.623047	5689.846680
442.500000	-1652.000000	1001.477539	5374.008301
442.500000	-1652.000000	1000.333008	4977.547363
442.500000	-1652.000000	999.187500	4819.183105
442.500000	-1652.000000	998.041992	4741.631348
442.500000	-1652.000000	996.895508	4600.852539
442.500000	-1652.000000	995.749023	4669.518066
442.500000	-1652.000000	994.602539	4642.208496
442.500000	-1652.000000	993.456055	4645.430176
442.500000	-1652.000000	992.308594	4576.729980
442.500000	-1652.000000	991.161133	4654.045898
442.500000	-1652.000000	990.013672	4587.553711
442.500000	-1652.000000	988.866211	4566.827148
442.500000	-1652.000000	987.717773	4635.376953
442.500000	-1652.000000	986.569336	4662.535156
442.500000	-1652.000000	985.419922	4589.574219
442.500000	-1652.000000	984.271484	4734.213867
442.500000	-1652.000000	983.122070	4837.453613
442.500000	-1652.000000	981.971680	4812.342285
442.500000	-1652.000000	980.822266	4919.858398
442.500000	-1652.000000	979.671875	4957.769043
442.500000	-1652.000000	978.521484	5004.351563
442.500000	-1652.000000	977.371094	5298.567871
442.500000	-1652.000000	976.219727	5429.745605
442.500000	-1652.000000	975.068359	5834.449219
442.500000	-1652.000000	973.916992	6332.297852
442.500000	-1652.000000	972.764648	6586.826172
442.500000	-1652.000000	971.612305	7279.518066
442.500000	-1652.000000	970.459961	7924.142578
442.500000	-1652.000000	969.307617	8646.519531
442.500000	-1652.000000	968.154297	9669.908203
442.500000	-1652.000000	967.000977	10525.883789
442.500000	-1652.000000	965.847656	11632.811523
442.500000	-1652.000000	964.693359	12682.859375
442.500000	-1652.000000	963.539063	13628.416992
442.500000	-1652.000000	962.384766	14276.834961
442.500000	-1652.000000	961.229492	14792.868164
442.500000	-1652.000000	960.075195	15183.108398
442.500000	-1652.000000	958.918945	14761.712891
442.500000	-1652.000000	957.763672	14362.156250
442.500000	-1652.000000	956.607422	13558.360352
442.500000	-1652.000000	955.451172	12971.183594
442.500000	-1652.000000	954.294922	12122.733398
442.500000	-1652.000000	953.138672	11121.262695
442.500000	-1652.000000	951.981445	10481.109375
442.500000	-1652.000000	950.824219	9906.077148
442.500000	-1652.000000	949.666016	9309.733398
442.500000	-1652.000000	948.507813	8685.620117
442.500000	-1652.000000	947.349609	8281.977539
442.500000	-1652.000000	946.191406	7850.483398
442.500000	-1652.000000	945.032227	7414.888184
442.500000	-1652.000000	943.874023	6880.295410
442.500000	-1652.000000	942.713867	6822.509766
442.500000	-1652.000000	941.554688	6531.930176
442.500000	-1652.000000	940.394531	6316.927734
442.500000	-1652.000000	939.234375	6147.279785
442.500000	-1652.000000	938.073242	5960.482422
442.500000	-1652.000000	936.913086	5717.784668
442.500000	-1652.000000	935.751953	5496.738281
442.500000	-1652.000000	934.589844	5357.596680
442.500000	-1652.000000	933.428711	5177.637207
442.500000	-1652.000000	932.266602	5036.492676
442.500000	-1652.000000	931.104492	4992.208008
442.500000	-1652.000000	929.941406	4894.186035
442.500000	-1652.000000	928.778320	5028.391113
442.500000	-1652.000000	927.615234	4825.093750
442.500000	-1652.000000	926.452148	4795.944336
442.500000	-1652.000000	925.288086	4775.401367
442.500000	-1652.000000	924.124023	4671.110352
442.500000	-1652.000000	922.959961	4779.433105
442.500000	-1652.000000	921.794922	4722.415527
442.500000	-1652.000000	920.629883	4674.010254
442.500000	-1652.000000	919.464844	4516.209473
442.500000	-1652.000000	918.299805	4480.748535
442.500000	-1652.000000	917.133789	4623.288574
442.500000	-1652.000000	915.967773	4609.254883
442.500000	-1652.000000	914.800781	4552.361816
442.500000	-1652.000000	913.634766	4450.499023
442.500000	-1652.000000	912.466797	4449.370605
442.500000	-1652.000000	911.299805	4371.142090
442.500000	-1652.000000	910.132813	4352.903809
442.500000	-1652.000000	908.964844	4409.594238
442.500000	-1652.000000	907.795898	4376.373047
442.500000	-1652.000000	906.627930	4358.145020
442.500000	-1652.000000	905.458984	4258.645020
442.500000	-1652.000000	904.290039	4204.101563
442.500000	-1652.000000	903.120117	4205.169434
442.500000	-1652.000000	901.951172	4261.805664
442.500000	-1652.000000	900.780273	4284.224609
442.500000	-1652.000000	899.610352	4236.135254
442.500000	-1652.000000	898.439453	4198.748047
442.500000	-1652.000000	897.268555	4142.163086
442.500000	-1652.000000	896.097656	4243.565918
442.500000	-1652.000000	894.926758	4278.760742
442.500000	-1652.000000	893.754883	4145.390137
442.500000	-1652.000000	892.582031	4295.770020
442.500000	-1652.000000	891.410156	4360.775879
442.500000	-1652.000000	890.237305	4270.121582
442.500000	-1652.000000	889.064453	4324.442383
442.500000	-1652.000000	887.891602	4276.457031
442.500000	-1652.000000	886.717773	4262.579590
442.500000	-1652.000000	885.543945	4323.247070
442.500000	-1652.000000	884.369141	4371.107910
442.500000	-1652.000000	883.195313	4484.929199
442.500000	-1652.000000	882.020508	4453.984863
442.500000	-1652.000000	880.844727	4401.780273
442.500000	-1652.000000	879.669922	4483.599121
442.500000	-1652.000000	878.494141	4467.561035
442.500000	-1652.000000	877.318359	4477.040527
442.500000	-1652.000000	876.141602	4401.501953
442.500000	-1652.000000	874.964844	4525.728516
442.500000	-1652.000000	873.788086	4450.214355
442.500000	-1652.000000	872.611328	4440.572266
442.500000	-1652.000000	871.433594	4386.348633
442.500000	-1652.000000	870.255859	4363.990723
442.500000	-1652.000000	869.077148	4345.887207
442.500000	-1652.000000	867.899414	4416.894043
442.500000	-1652.000000	866.720703	4333.036133
442.500000	-1652.000000	865.541016	4350.998535
442.500000	-1652.000000	864.362305	4407.107422
442.500000	-1652.000000	863.182617	4499.214355
442.500000	-1652.000000	862.001953	4548.897949
442.500000	-1652.000000	860.822266	4573.136719
442.500000	-1652.000000	859.641602	4478.774902
442.500000	-1652.000000	858.460938	4503.018066
442.500000	-1652.000000	857.279297	4537.829590
442.500000	-1652.000000	856.097656	4701.696777
442.500000	-1652.000000	854.916016	4488.932617
442.500000	-1652.000000	853.734375	4601.968750
442.500000	-1652.000000	852.551758	4634.600586
442.500000	-1652.000000	851.369141	4536.160645
442.500000	-1652.000000	850.185547	4444.110352
442.500000	-1652.000000	849.002930	4510.558105
442.500000	-1652.000000	847.819336	4395.327637
442.500000	-1652.000000	846.634766	4446.970703
442.500000	-1652.000000	845.451172	4475.364258
442.500000	-1652.000000	844.266602	4438.317871
442.500000	-1652.000000	843.081055	4494.125977
442.500000	-1652.000000	841.896484	4431.779785
442.500000	-1652.000000	840.710938	4409.532715
442.500000	-1652.000000	839.524414	4389.404785
442.500000	-1652.000000	838.338867	4341.886230
442.500000	-1652.000000	837.152344	4484.035645
442.500000	-1652.000000	835.965820	4400.703125
442.500000	-1652.000000	834.778320	4500.639648
442.500000	-1652.000000	833.590820	4442.610840
442.500000	-1652.000000	832.403320	4386.715820
442.500000	-1652.000000	831.215820	4419.234375
442.500000	-1652.000000	830.027344	4237.142578
442.500000	-1652.000000	828.838867	4181.343262
442.500000	-1652.000000	827.649414	4203.374023
442.500000	-1652.000000	826.459961	4240.106934
442.500000	-1652.000000	825.270508	4150.722168
442.500000	-1652.000000	824.081055	4145.426758
442.500000	-1652.000000	822.890625	4123.329102
442.500000	-1652.000000	821.700195	4233.540039
442.500000	-1652.000000	820.509766	4257.616211
442.500000	-1652.000000	819.318359	4107.473145
442.500000	-1652.000000	818.126953	4312.022461
442.500000	-1652.000000	816.935547	4350.740723
442.500000	-1652.000000	815.743164	4320.229492
442.500000	-1652.000000	814.550781	4442.788574
442.500000	-1652.000000	813.358398	4548.513672
442.500000	-1652.000000	812.165039	4511.685059
442.500000	-1652.000000	810.971680	4435.070313
442.500000	-1652.000000	809.778320	4371.062012
442.500000	-1652.000000	808.583984	4304.993164
442.500000	-1652.000000	807.389648	4163.598633
442.500000	-1652.000000	806.195313	4007.629395
442.500000	-1652.000000	805.000000	4021.210205
442.500000	-1652.000000	803.804688	3917.650879
442.500000	-1652.000000	802.609375	3878.969482
442.500000	-1652.000000	801.414063	3932.291504
442.500000	-1652.000000	800.217773	3876.905273
442.500000	-1652.000000	799.020508	3894.677490
442.500000	-1652.000000	797.824219	3891.551025
442.500000	-1652.000000	796.626953	3867.541992
442.500000	-1652.000000	795.429688	3737.070068
442.500000	-1652.000000	794.231445	3832.083496
442.500000	-1652.000000	793.033203	3726.728516
442.500000	-1652.000000	791.834961	3890.532715
442.500000	-1652.000000	790.636719	3854.039063
442.500000	-1652.000000	789.437500	3875.942871
442.500000	-1652.000000	788.238281	3858.230469
442.500000	-1652.000000	787.038086	3880.119629
442.500000	-1652.000000	785.837891	3837.414551
442.500000	-1652.000000	784.637695	3848.882324
442.500000	-1652.000000	783.437500	3897.822510
442.500000	-1652.000000	782.236328	3817.675293
442.500000	-1652.000000	781.035156	3858.271484
442.500000	-1652.000000	779.833008	3807.303467
442.500000	-1652.000000	778.630859	3791.720703
442.500000	-1652.000000	777.428711	3942.495605
442.500000	-1652.000000	776.226563	3966.380859
442.500000	-1652.000000	775.023438	3817.757080
442.500000	-1652.000000	773.820313	3866.593750
442.500000	-1652.000000	772.616211	3786.620605
442.500000	-1652.000000	771.413086	3800.135742
442.500000	-1652.000000	770.208984	3859.315186
442.500000	-1652.000000	769.003906	3847.896484
442.500000	-1652.000000	767.798828	3923.628662
442.500000	-1652.000000	766.593750	3939.163330
442.500000	-1652.000000	765.388672	3821.967041
442.500000	-1652.000000	764.182617	3847.885254
442.500000	-1652.000000	762.976563	3886.224365
442.500000	-1652.000000	761.769531	3773.279297
442.500000	-1652.000000	760.562500	3776.400146
442.500000	-1652.000000	759.355469	3854.073486
442.500000	-1652.000000	758.148438	3853.028320
442.500000	-1652.000000	756.940430	3754.700195
442.500000	-1652.000000	755.732422	3913.015869
442.500000	-1652.000000	754.523438	3849.891357
442.500000	-1652.000000	753.315430	3811.618164
442.500000	-1652.000000	752.105469	3878.812500
442.500000	-1652.000000	750.896484	3877.757324
442.500000	-1652.000000	749.686523	3860.169922
442.500000	-1652.000000	748.476563	3945.886963
442.500000	-1652.000000	747.265625	3812.629639
442.500000	-1652.000000	746.055664	3784.747803
442.500000	-1652.000000	744.843750	3827.064209
442.500000	-1652.000000	743.632813	3830.146973
442.500000	-1652.000000	742.420898	3839.416504
442.500000	-1652.000000	741.208984	3720.803223
442.500000	-1652.000000	739.996094	3717.724121
442.500000	-1652.000000	738.783203	3823.900391
442.500000	-1652.000000	737.570313	3859.948975
442.500000	-1652.000000	736.357422	3702.311279
442.500000	-1652.000000	735.143555	3734.252441
442.500000	-1652.000000	733.929688	3823.831055
442.500000	-1652.000000	732.714844	3857.778320
442.500000	-1652.000000	731.500000	3780.573242
442.500000	-1652.000000	730.285156	3859.775879
442.500000	-1652.000000	729.069336	3879.284424
442.500000	-1652.000000	727.853516	3855.598633
442.500000	-1652.000000	726.637695	3790.810059
442.500000	-1652.000000	725.420898	3804.153320
442.500000	-1652.000000	724.204102	3852.416992
442.500000	-1582.000000	1819.619141	1651.250977
442.500000	-1582.000000	1818.655273	1635.697632
442.500000	-1582.000000	1817.690430	1772.697998
442.500000	-1582.000000	1816.725586	1676.439697
442.500000	-1582.000000	1815.760742	1714.931152
442.500000	-1582.000000	1814.794922	1789.665161
442.500000	-1582.000000	1813.830078	1740.075562
442.500000	-1582.000000	1812.864258	1718.984741
442.500000	-1582.000000	1811.898438	1682.373535
442.500000	-1582.000000	1810.931641	1663.892334
442.500000	-1582.000000	1809.965820	1707.510376
442.500000	-1582.000000	1808.999023	1738.176636
442.500000	-1582.000000	1808.032227	1704.179321
442.500000	-1582.000000	1807.065430	1626.244263
442.500000	-1582.000000	1806.098633	1682.756958
442.500000	-1582.000000	1805.130859	1770.256836
442.500000	-1582.000000	1804.163086	1787.957275
442.500000	-1582.000000	1803.195313	1743.653320
442.500000	-1582.000000	1802.227539	1663.212036
442.500000	-1582.000000	1801.259766	1652.521484
442.500000	-1582.000000	1800.291016	1714.117676
442.500000	-1582.000000	1799.322266	1796.334717
442.500000	-1582.000000	1798.353516	1744.336060
442.500000	-1582.000000	1797.384766	1805.872192
442.500000	-1582.000000	1796.415039	1733.260132
442.500000	-1582.000000	1795.445313	1655.522339
442.500000	-1582.000000	1794.475586	1727.350098
442.500000	-1582.000000	1793.505859	1706.354004
442.500000	-1582.000000	1792.536133	1791.024536
442.500000	-1582.000000	1791.565430	1842.164551
442.500000	-1582.000000	1790.594727	1841.764282
442.500000	-1582.000000	1789.624023	1743.501587
442.500000	-1582.000000	1788.653320	1779.169800
442.500000	-1582.000000	1787.681641	1763.338257
442.500000	-1582.000000	1786.710938	1832.444336
442.500000	-1582.000000	1785.739258	1785.730957
442.500000	-1582.000000	1784.767578	1808.496460
442.500000	-1582.000000	1783.794922	1764.380493
442.500000	-1582.000000	1782.823242	1756.283569
442.500000	-1582.000000	1781.850586	1794.465820
442.500000	-1582.000000	1780.877930	1822.350342
442.500000	-1582.000000	1779.905273	1829.664673
442.500000	-1582.000000	1778.931641	1818.991577
442.500000	-1582.000000	1777.958984	1803.185669
442.500000	-1582.000000	1776.985352	1774.546265
442.500000	-1582.000000	1776.011719	1758.756836
442.500000	-1582.000000	1775.038086	1773.777954
442.500000	-1582.000000	1774.063477	1917.113525
442.500000	-1582.000000	1773.088867	1837.156982
442.500000	-1582.000000	1772.114258	1777.757446
442.500000	-1582.000000	1771.139648	1818.409058
442.500000	-1582.000000	1770.165039	1846.222046
442.500000	-1582.000000	1769.189453	1804.804565
442.500000	-1582.000000	1768.214844	1858.239380
442.500000	-1582.000000	1767.239258	1834.775024
442.500000	-1582.000000	1766.262695	1785.700928
442.500000	-1582.000000	1765.287109	1880.088013
442.500000	-1582.000000	1764.310547	1887.364624
442.500000	-1582.000000	1763.333984	1876.715820
442.500000	-1582.000000	1762.357422	1947.984131
442.500000	-1582.000000	1761.380859	1906.616211
442.500000	-1582.000000	1760.403320	1852.472900
442.500000	-1582.000000	1759.426758	1872.538086
442.500000	-1582.000000	1758.449219	1851.673706
442.500000	-1582.000000	1757.471680	1876.844482
442.500000	-1582.000000	1756.493164	1907.117188
442.500000	-1582.000000	1755.515625	1853.032104
442.500000	-1582.000000	1754.537109	1929.293335
442.500000	-1582.000000	1753.558594	1959.535156
442.500000	-1582.000000	1752.580078	1879.931152
442.500000	-1582.000000	1751.600586	1892.294678
442.500000	-1582.000000	1750.621094	2019.544800
442.500000	-1582.000000	1749.641602	1978.268188
442.500000	-1582.000000	1748.662109	1952.321777
442.500000	-1582.000000	1747.682617	2064.167725
442.500000	-1582.000000	1746.702148	1999.949585
442.500000	-1582.000000	1745.722656	2009.720825
442.500000	-1582.000000	1744.742188	2034.787109
442.500000	-1582.000000	1743.761719	2011.405640
442.500000	-1582.000000	1742.780273	1982.936646
442.500000	-1582.000000	1741.799805	2104.824463
442.500000	-1582.000000	1740.818359	2119.657959
442.500000	-1582.000000	1739.836914	2149.767822
442.500000	-1582.000000	1738.854492	2225.702881
442.500000	-1582.000000	1737.873047	2069.917236
442.500000	-1582.000000	1736.890625	2191.655273
442.500000	-1582.000000	1735.908203	2308.251465
442.500000	-1582.000000	1734.925781	2198.347168
442.500000	-1582.000000	1733.943359	2195.331299
442.500000	-1582.000000	1732.959961	2250.812256
442.500000	-1582.000000	1731.976563	2240.158203
442.500000	-1582.000000	1730.993164	2331.196533
442.500000	-1582.000000	1730.009766	2358.654541
442.500000	-1582.000000	1729.026367	2320.031738
442.500000	-1582.000000	1728.041992	2426.237793
442.500000	-1582.000000	1727.057617	2468.897705
442.500000	-1582.000000	1726.073242	2293.144531
442.500000	-1582.000000	1725.088867	2340.892578
442.500000	-1582.000000	1724.103516	2492.693848
442.500000	-1582.000000	1723.119141	2423.637695
442.500000	-1582.000000	1722.133789	2433.267578
442.500000	-1582.000000	1721.147461	2506.312012
442.500000	-1582.000000	1720.162109	2447.442139
442.500000	-1582.000000	1719.175781	2454.524902
442.500000	-1582.000000	1718.190430	2372.875244
442.500000	-1582.000000	1717.204102	2344.486572
442.500000	-1582.000000	1716.216797	2308.508057
442.500000	-1582.000000	1715.230469	2335.882324
442.500000	-1582.000000	1714.243164	2310.052734
442.500000	-1582.000000	1713.255859	2380.465820
442.500000	-1582.000000	1712.268555	2298.936523
442.500000	-1582.000000	1711.281250	2255.412109
442.500000	-1582.000000	1710.292969	2219.498535
442.500000	-1582.000000	1709.305664	2234.205322
442.500000	-1582.000000	1708.317383	2347.564209
442.500000	-1582.000000	1707.328125	2276.245605
442.500000	-1582.000000	1706.339844	2331.388428
442.500000	-1582.000000	1705.350586	2315.721680
442.500000	-1582.000000	1704.362305	2322.809082
442.500000	-1582.000000	1703.373047	2284.407715
442.500000	-1582.000000	1702.382813	2359.713379
442.500000	-1582.000000	1701.393555	2349.105469
442.500000	-1582.000000	1700.403320	2376.382813
442.500000	-1582.000000	1699.413086	2391.024170
442.500000	-1582.000000	1698.422852	2451.096680
442.500000	-1582.000000	1697.432617	2453.096924
442.500000	-1582.000000	1696.441406	2495.467773
442.500000	-1582.000000	1695.450195	2449.526855
442.500000	-1582.000000	1694.458984	2517.101807
442.500000	-1582.000000	1693.467773	2519.085938
442.500000	-1582.000000	1692.476563	2563.927734
442.500000	-1582.000000	1691.484375	2573.462646
442.500000	-1582.000000	1690.492188	2605.673340
442.500000	-1582.000000	1689.500000	2622.753662
442.500000	-1582.000000	1688.507813	2652.421143
442.500000	-1582.000000	1687.514648	2704.741211
442.500000	-1582.000000	1686.521484	2689.057373
442.500000	-1582.000000	1685.528320	2713.656982
442.500000	-1582.000000	1684.535156	2680.360352
442.500000	-1582.000000	1683.541992	2740.178467
442.500000	-1582.000000	1682.547852	2721.984375
442.500000	-1582.000000	1681.553711	2776.737549
442.500000	-1582.000000	1680.559570	2715.794678
442.500000	-1582.000000	1679.565430	2727.786377
442.500000	-1582.000000	1678.571289	2850.369141
442.500000	-1582.000000	1677.576172	2796.988525
442.500000	-1582.000000	1676.581055	2791.367676
442.500000	-1582.000000	1675.585938	2803.332764
442.500000	-1582.000000	1674.590820	2817.803955
442.500000	-1582.000000	1673.594727	2922.660645
442.500000	-1582.000000	1672.598633	2866.810547
442.500000	-1582.000000	1671.602539	2964.082764
442.500000	-1582.000000	1670.606445	2870.608398
442.500000	-1582.000000	1669.610352	2897.593262
442.500000	-1582.000000	1668.613281	2962.189697
442.500000	-1582.000000	1667.616211	2861.252441
442.500000	-1582.000000	1666.619141	2863.150391
442.500000	-1582.000000	1665.622070	2860.034424
442.500000	-1582.000000	1664.624023	2864.437988
442.500000	-1582.000000	1663.625977	2853.806396
442.500000	-1582.000000	1662.627930	2943.379150
442.500000	-1582.000000	1661.629883	2807.511475
442.500000	-1582.000000	1660.631836	2819.434082
442.500000	-1582.000000	1659.632813	2766.262695
442.500000	-1582.000000	1658.633789	2743.148438
442.500000	-1582.000000	1657.634766	2797.616455
442.500000	-1582.000000	1656.635742	2721.967285
442.500000	-1582.000000	1655.636719	2743.899902
442.500000	-1582.000000	1654.636719	2745.817139
442.500000	-1582.000000	1653.636719	2762.734863
442.500000	-1582.000000	1652.636719	2687.156982
442.500000	-1582.000000	1651.636719	2774.056152
442.500000	-1582.000000	1650.635742	2698.507813
442.500000	-1582.000000	1649.634766	2680.447510
442.500000	-1582.000000	1648.633789	2729.829102
442.500000	-1582.000000	1647.632813	2756.716064
442.500000	-1582.000000	1646.631836	2786.088135
442.500000	-1582.000000	1645.629883	2857.879150
442.500000	-1582.000000	1644.627930	2904.685059
442.500000	-1582.000000	1643.625977	2926.522217
442.500000	-1582.000000	1642.624023	2998.237305
442.500000	-1582.000000	1641.621094	3062.440186
442.500000	-1582.000000	1640.618164	3036.856445
442.500000	-1582.000000	1639.615234	3043.689697
442.500000	-1582.000000	1638.612305	3045.535400
442.500000	-1582.000000	1637.609375	3042.396973
442.500000	-1582.000000	1636.605469	2981.962158
442.500000	-1582.000000	1635.601563	2976.347412
442.500000	-1582.000000	1634.597656	2841.247803
442.500000	-1582.000000	1633.593750	2825.707031
442.500000	-1582.000000	1632.589844	2713.098389
442.500000	-1582.000000	1631.584961	2729.942139
442.500000	-1582.000000	1630.580078	2736.826660
442.500000	-1582.000000	1629.575195	2601.920654
442.500000	-1582.000000	1628.569336	2611.316162
442.500000	-1582.000000	1627.564453	2677.895752
442.500000	-1582.000000	1626.558594	2587.834473
442.500000	-1582.000000	1625.552734	2552.489746
442.500000	-1582.000000	1624.546875	2489.826660
442.500000	-1582.000000	1623.540039	2457.001953
442.500000	-1582.000000	1622.534180	2533.478271
442.500000	-1582.000000	1621.527344	2478.308594
442.500000	-1582.000000	1620.520508	2460.403320
442.500000	-1582.000000	1619.512695	2405.272461
442.500000	-1582.000000	1618.505859	2496.584717
442.500000	-1582.000000	1617.498047	2434.025635
442.500000	-1582.000000	1616.490234	2589.789551
442.500000	-1582.000000	1615.482422	2393.311035
442.500000	-1582.000000	1614.473633	2501.905273
442.500000	-1582.000000	1613.465820	2491.458008
442.500000	-1582.000000	1612.457031	2500.843750
442.500000	-1582.000000	1611.448242	2430.928711
442.500000	-1582.000000	1610.438477	2475.007813
442.500000	-1582.000000	1609.429688	2469.528809
442.500000	-1582.000000	1608.419922	2600.255859
442.500000	-1582.000000	1607.410156	2646.746582
442.500000	-1582.000000	1606.400391	2621.431396
442.500000	-1582.000000	1605.390625	2702.545654
442.500000	-1582.000000	1604.379883	2748.984619
442.500000	-1582.000000	1603.369141	2805.299316
442.500000	-1582.000000	1602.358398	2844.276611
442.500000	-1582.000000	1601.347656	2858.510010
442.500000	-1582.000000	1600.335938	2763.958740
442.500000	-1582.000000	1599.325195	2691.692871
442.500000	-1582.000000	1598.313477	2656.525391
442.500000	-1582.000000	1597.300781	2596.666016
442.500000	-1582.000000	1596.289063	2462.727783
442.500000	-1582.000000	1595.276367	2595.564697
442.500000	-1582.000000	1594.264648	2459.214355
442.500000	-1582.000000	1593.251953	2540.155518
442.500000	-1582.000000	1592.238281	2445.831055
442.500000	-1582.000000	1591.225586	2430.507324
442.500000	-1582.000000	1590.211914	2474.397705
442.500000	-1582.000000	1589.198242	2422.076904
442.500000	-1582.000000	1588.184570	2461.018555
442.500000	-1582.000000	1587.170898	2450.635010
442.500000	-1582.000000	1586.156250	2430.395996
442.500000	-1582.000000	1585.141602	2543.242188
442.500000	-1582.000000	1584.126953	2510.672607
442.500000	-1582.000000	1583.112305	2549.553467
442.500000	-1582.000000	1582.097656	2502.219238
442.500000	-1582.000000	1581.082031	2484.452637
442.500000	-1582.000000	1580.066406	2476.540283
442.500000	-1582.000000	1579.050781	2549.852539
442.500000	-1582.000000	1578.035156	2445.961426
442.500000	-1582.000000	1577.018555	2474.965088
442.500000	-1582.000000	1576.001953	2511.335205
442.500000	-1582.000000	1574.985352	2461.619385
442.500000	-1582.000000	1573.968750	2375.045166
442.500000	-1582.000000	1572.952148	2494.989014
442.500000	-1582.000000	1571.934570	2430.562500
442.500000	-1582.000000	1570.916992	2508.673340
442.500000	-1582.000000	1569.899414	2483.575684
442.500000	-1582.000000	1568.881836	2473.224609
442.500000	-1582.000000	1567.863281	2462.877930
442.500000	-1582.000000	1566.844727	2452.535645
442.500000	-1582.000000	1565.826172	2461.833252
442.500000	-1582.000000	1564.807617	2404.870361
442.500000	-1582.000000	1563.789063	2441.161621
442.500000	-1582.000000	1562.769531	2425.926270
442.500000	-1582.000000	1561.750000	2405.792480
442.500000	-1582.000000	1560.730469	2476.386230
442.500000	-1582.000000	1559.710938	2561.657959
442.500000	-1582.000000	1558.690430	2472.884766
442.500000	-1582.000000	1557.669922	2516.465576
442.500000	-1582.000000	1556.649414	2496.333496
442.500000	-1582.000000	1555.628906	2481.108154
442.500000	-1582.000000	1554.608398	2345.900635
442.500000	-1582.000000	1553.586914	2416.401367
442.500000	-1582.000000	1552.565430	2496.663086
442.500000	-1582.000000	1551.543945	2496.133301
442.500000	-1582.000000	1550.522461	2454.010010
442.500000	-1582.000000	1549.500000	2517.089355
442.500000	-1582.000000	1548.477539	2477.425049
442.500000	-1582.000000	1547.455078	2476.899170
442.500000	-1582.000000	1546.432617	2447.038330
442.500000	-1582.000000	1545.410156	2436.742676
442.500000	-1582.000000	1544.386719	2499.757813
442.500000	-1582.000000	1543.363281	2445.480225
442.500000	-1582.000000	1542.339844	2488.926514
442.500000	-1582.000000	1541.316406	2407.812012
442.500000	-1582.000000	1540.291992	2473.220947
442.500000	-1582.000000	1539.268555	2448.286133
442.500000	-1582.000000	1538.244141	2489.253906
442.500000	-1582.000000	1537.218750	2491.165283
442.500000	-1582.000000	1536.194336	2493.075684
442.500000	-1582.000000	1535.168945	2431.573975
442.500000	-1582.000000	1534.143555	2533.469238
442.500000	-1582.000000	1533.118164	2508.552490
442.500000	-1582.000000	1532.092773	2437.336914
442.500000	-1582.000000	1531.066406	2392.956543
442.500000	-1582.000000	1530.041016	2482.591309
442.500000	-1582.000000	1529.014648	2484.499756
442.500000	-1582.000000	1527.987305	2532.677246
442.500000	-1582.000000	1526.960938	2478.574707
442.500000	-1582.000000	1525.933594	2439.100342
442.500000	-1582.000000	1524.906250	2467.786621
442.500000	-1582.000000	1523.878906	2481.861328
442.500000	-1582.000000	1522.851563	2508.093506
442.500000	-1582.000000	1521.823242	2410.273926
442.500000	-1582.000000	1520.795898	2463.257813
442.500000	-1582.000000	1519.767578	2462.734131
442.500000	-1582.000000	1518.738281	2420.890137
442.500000	-1582.000000	1517.709961	2539.450195
442.500000	-1582.000000	1516.680664	2492.748291
442.500000	-1582.000000	1515.651367	2511.650879
442.500000	-1582.000000	1514.622070	2469.831543
442.500000	-1582.000000	1513.592773	2445.025879
442.500000	-1582.000000	1512.562500	2534.323975
442.500000	-1582.000000	1511.532227	2482.817871
442.500000	-1582.000000	1510.501953	2499.275146
442.500000	-1582.000000	1509.471680	2564.244629
442.500000	-1582.000000	1508.441406	2512.764648
442.500000	-1582.000000	1507.410156	2568.003418
442.500000	-1582.000000	1506.378906	2608.672119
442.500000	-1582.000000	1505.347656	2569.334717
442.500000	-1582.000000	1504.316406	2590.598145
442.500000	-1582.000000	1503.284180	2587.624023
442.500000	-1582.000000	1502.251953	2473.222656
442.500000	-1582.000000	1501.219727	2557.460449
442.500000	-1582.000000	1500.187500	2569.022705
442.500000	-1582.000000	1499.154297	2614.470947
442.500000	-1582.000000	1498.122070	2635.697021
442.500000	-1582.000000	1497.088867	2763.383789
442.500000	-1582.000000	1496.054688	2709.571533
442.500000	-1582.000000	1495.021484	2716.250732
442.500000	-1582.000000	1493.987305	2660.052734
442.500000	-1582.000000	1492.954102	2787.625000
442.500000	-1582.000000	1491.918945	2825.706299
442.500000	-1582.000000	1490.884766	2856.520996
442.500000	-1582.000000	1489.850586	2754.433105
442.500000	-1582.000000	1488.815430	2732.105225
442.500000	-1582.000000	1487.780273	2758.089600
442.500000	-1582.000000	1486.745117	2798.550293
442.500000	-1582.000000	1485.708984	2810.024170
442.500000	-1582.000000	1484.673828	2891.487305
442.500000	-1582.000000	1483.637695	2852.261475
442.500000	-1582.000000	1482.601563	2907.142090
442.500000	-1582.000000	1481.564453	2846.220947
442.500000	-1582.000000	1480.528320	2946.898193
442.500000	-1582.000000	1479.491211	3006.545166
442.500000	-1582.000000	1478.454102	2923.946533
442.500000	-1582.000000	1477.416992	3031.772217
442.500000	-1582.000000	1476.378906	3038.353760
442.500000	-1582.000000	1475.341797	3124.427979
442.500000	-1582.000000	1474.303711	2957.578125
442.500000	-1582.000000	1473.264648	3111.054688
442.500000	-1582.000000	1472.226563	3093.538574
442.500000	-1582.000000	1471.187500	3287.837646
442.500000	-1582.000000	1470.149414	3202.911621
442.500000	-1582.000000	1469.110352	3368.233398
442.500000	-1582.000000	1468.070313	3365.108398
442.500000	-1582.000000	1467.031250	3390.843018
442.500000	-1582.000000	1465.991211	3411.757568
442.500000	-1582.000000	1464.951172	3627.372803
442.500000	-1582.000000	1463.911133	3643.420898
442.500000	-1582.000000	1462.870117	3640.239258
442.500000	-1582.000000	1461.830078	3675.495361
442.500000	-1582.000000	1460.789063	3669.906006
442.500000	-1582.000000	1459.748047	3784.381592
442.500000	-1582.000000	1458.706055	3757.164307
442.500000	-1582.000000	1457.665039	3799.564697
442.500000	-1582.000000	1456.623047	3750.757568
442.500000	-1582.000000	1455.581055	3781.144775
442.500000	-1582.000000	1454.539063	3813.917480
442.500000	-1582.000000	1453.496094	3791.517822
442.500000	-1582.000000	1452.454102	3829.068848
442.500000	-1582.000000	1451.411133	3864.206543
442.500000	-1582.000000	1450.368164	3904.122070
442.500000	-1582.000000	1449.324219	3840.986816
442.500000	-1582.000000	1448.281250	3861.724854
442.500000	-1582.000000	1447.237305	3733.957520
442.500000	-1582.000000	1446.193359	3860.070801
442.500000	-1582.000000	1445.148438	3780.239258
442.500000	-1582.000000	1444.104492	3834.481201
442.500000	-1582.000000	1443.059570	3709.221191
442.500000	-1582.000000	1442.014648	3627.079834
442.500000	-1582.000000	1440.969727	3597.598145
442.500000	-1582.000000	1439.923828	3548.996582
442.500000	-1582.000000	1438.878906	3526.716797
442.500000	-1582.000000	1437.833008	3442.293457
442.500000	-1582.000000	1436.787109	3391.365723
442.500000	-1582.000000	1435.740234	3371.522461
442.500000	-1582.000000	1434.694336	3368.410156
442.500000	-1582.000000	1433.647461	3403.513672
442.500000	-1582.000000	1432.600586	3316.818115
442.500000	-1582.000000	1431.552734	3323.268311
442.500000	-1582.000000	1430.505859	3329.715576
442.500000	-1582.000000	1429.458008	3283.659424
442.500000	-1582.000000	1428.410156	3380.774658
442.500000	-1582.000000	1427.362305	3198.761475
442.500000	-1582.000000	1426.313477	3281.543701
442.500000	-1582.000000	1425.265625	3173.543701
442.500000	-1582.000000	1424.216797	3222.921875
442.500000	-1582.000000	1423.167969	3296.111572
442.500000	-1582.000000	1422.118164	3195.325684
442.500000	-1582.000000	1421.069336	3285.165283
442.500000	-1582.000000	1420.019531	3327.330566
442.500000	-1582.000000	1418.969727	3174.214355
442.500000	-1582.000000	1417.919922	3268.761230
442.500000	-1582.000000	1416.869141	3191.890625
442.500000	-1582.000000	1415.818359	3088.875732
442.500000	-1582.000000	1414.767578	3100.106934
442.500000	-1582.000000	1413.716797	3177.936279
442.500000	-1582.000000	1412.666016	3184.386475
442.500000	-1582.000000	1411.614258	3155.168701
442.500000	-1582.000000	1410.562500	3273.346924
442.500000	-1582.000000	1409.510742	3322.551270
442.500000	-1582.000000	1408.458984	3295.697998
442.500000	-1582.000000	1407.406250	3180.957764
442.500000	-1582.000000	1406.353516	3320.403564
442.500000	-1582.000000	1405.300781	3310.189453
442.500000	-1582.000000	1404.248047	3383.072266
442.500000	-1582.000000	1403.194336	3363.354004
442.500000	-1582.000000	1402.140625	3355.509277
442.500000	-1582.000000	1401.086914	3376.138184
442.500000	-1582.000000	1400.033203	3384.897705
442.500000	-1582.000000	1398.979492	3355.708740
442.500000	-1582.000000	1397.924805	3264.885986
442.500000	-1582.000000	1396.870117	3242.846436
442.500000	-1582.000000	1395.815430	3242.145996
442.500000	-1582.000000	1394.759766	3208.272949
442.500000	-1582.000000	1393.705078	3098.607422
442.500000	-1582.000000	1392.649414	3256.624268
442.500000	-1582.000000	1391.593750	3220.401123
442.500000	-1582.000000	1390.537109	3193.663330
442.500000	-1582.000000	1389.481445	3150.368164
442.500000	-1582.000000	1388.424805	3182.816650
442.500000	-1582.000000	1387.368164	3243.641357
442.500000	-1582.000000	1386.311523	3207.458984
442.500000	-1582.000000	1385.253906	3095.615967
442.500000	-1582.000000	1384.197266	3243.900391
442.500000	-1582.000000	1383.139648	3177.010498
442.500000	-1582.000000	1382.081055	3277.946045
442.500000	-1582.000000	1381.023438	3185.085938
442.500000	-1582.000000	1379.964844	3345.033203
442.500000	-1582.000000	1378.906250	3256.921875
442.500000	-1582.000000	1377.847656	3312.886963
442.500000	-1582.000000	1376.789063	3177.604492
442.500000	-1582.000000	1375.729492	3174.555420
442.500000	-1582.000000	1374.669922	3199.824219
442.500000	-1582.000000	1373.610352	3121.275391
442.500000	-1582.000000	1372.550781	3106.445801
442.500000	-1582.000000	1371.490234	3089.264160
442.500000	-1582.000000	1370.429688	3067.374268
442.500000	-1582.000000	1369.369141	3144.495850
442.500000	-1582.000000	1368.308594	3075.469238
442.500000	-1582.000000	1367.248047	3074.801270
442.500000	-1582.000000	1366.186523	3114.179688
442.500000	-1582.000000	1365.125000	3007.521484
442.500000	-1582.000000	1364.063477	3122.244873
442.500000	-1582.000000	1363.000977	3100.379150
442.500000	-1582.000000	1361.939453	3130.302002
442.500000	-1582.000000	1360.876953	2913.136230
442.500000	-1582.000000	1359.813477	3065.420654
442.500000	-1582.000000	1358.750977	3067.105713
442.500000	-1582.000000	1357.687500	2995.891357
442.500000	-1582.000000	1356.625000	3037.558105
442.500000	-1582.000000	1355.560547	3025.144043
442.500000	-1582.000000	1354.497070	3066.785889
442.500000	-1582.000000	1353.432617	3035.574219
442.500000	-1582.000000	1352.369141	3196.994141
442.500000	-1582.000000	1351.304688	3130.539551
442.500000	-1582.000000	1350.239258	3101.681396
442.500000	-1582.000000	1349.174805	3208.988770
442.500000	-1582.000000	1348.109375	3177.778564
442.500000	-1582.000000	1347.043945	3247.478516
442.500000	-1582.000000	1345.978516	3272.575439
442.500000	-1582.000000	1344.912109	3189.771484
442.500000	-1582.000000	1343.846680	3280.526611
442.500000	-1582.000000	1342.780273	3246.988770
442.500000	-1582.000000	1341.712891	3344.722900
442.500000	-1582.000000	1340.646484	3233.853760
442.500000	-1582.000000	1339.579102	3240.175781
442.500000	-1582.000000	1338.511719	3166.854736
442.500000	-1582.000000	1337.444336	3231.733887
442.500000	-1582.000000	1336.376953	3221.661865
442.500000	-1582.000000	1335.308594	3246.706299
442.500000	-1582.000000	1334.240234	3234.294434
442.500000	-1582.000000	1333.171875	3271.023193
442.500000	-1582.000000	1332.103516	3298.378662
442.500000	-1582.000000	1331.034180	3393.545898
442.500000	-1582.000000	1329.964844	3252.507568
442.500000	-1582.000000	1328.895508	3223.742188
442.500000	-1582.000000	1327.826172	3316.525146
442.500000	-1582.000000	1326.755859	3378.889648
442.500000	-1582.000000	1325.686523	3364.131592
442.500000	-1582.000000	1324.616211	3305.001709
442.500000	-1582.000000	1323.544922	3362.656250
442.500000	-1582.000000	1322.474609	3296.547852
442.500000	-1582.000000	1321.403320	3309.829590
442.500000	-1582.000000	1320.332031	3313.770264
442.500000	-1582.000000	1319.260742	3322.375244
442.500000	-1582.000000	1318.188477	3340.306641
442.500000	-1582.000000	1317.117188	3395.543213
442.500000	-1582.000000	1316.044922	3294.538818
442.500000	-1582.000000	1314.971680	3279.828125
442.500000	-1582.000000	1313.899414	3288.429443
442.500000	-1582.000000	1312.826172	3308.676758
442.500000	-1582.000000	1311.752930	3326.585449
442.500000	-1582.000000	1310.679688	3346.814697
442.500000	-1582.000000	1309.606445	3404.291016
442.500000	-1582.000000	1308.532227	3387.245605
442.500000	-1582.000000	1307.458008	3277.107666
442.500000	-1582.000000	1306.383789	3304.309570
442.500000	-1582.000000	1305.309570	3277.990479
442.500000	-1582.000000	1304.234375	3323.787109
442.500000	-1582.000000	1303.159180	3381.190430
442.500000	-1582.000000	1302.083984	3389.744629
442.500000	-1582.000000	1301.008789	3330.886475
442.500000	-1582.000000	1299.932617	3395.220947
442.500000	-1582.000000	1298.856445	3394.471680
442.500000	-1582.000000	1297.780273	3370.493652
442.500000	-1582.000000	1296.704102	3430.130859
442.500000	-1582.000000	1295.626953	3429.373291
442.500000	-1582.000000	1294.549805	3486.648926
442.500000	-1582.000000	1293.472656	3423.216309
442.500000	-1582.000000	1292.395508	3348.209473
442.500000	-1582.000000	1291.318359	3400.824463
442.500000	-1582.000000	1290.240234	3560.103027
442.500000	-1582.000000	1289.162109	3487.433350
442.500000	-1582.000000	1288.083008	3584.028564
442.500000	-1582.000000	1287.004883	3478.936523
442.500000	-1582.000000	1285.925781	3468.897217
442.500000	-1582.000000	1284.846680	3634.932617
442.500000	-1582.000000	1283.767578	3573.906006
442.500000	-1582.000000	1282.687500	3568.482422
442.500000	-1582.000000	1281.608398	3579.267334
442.500000	-1582.000000	1280.528320	3622.452148
442.500000	-1582.000000	1279.447266	3718.843018
442.500000	-1582.000000	1278.367188	3620.844971
442.500000	-1582.000000	1277.286133	3643.172607
442.500000	-1582.000000	1276.205078	3614.612305
442.500000	-1582.000000	1275.124023	3639.242676
442.500000	-1582.000000	1274.042969	3719.339600
442.500000	-1582.000000	1272.960938	3575.226807
442.500000	-1582.000000	1271.878906	3701.512695
442.500000	-1582.000000	1270.796875	3691.449463
442.500000	-1582.000000	1269.713867	3734.509521
442.500000	-1582.000000	1268.631836	3742.914551
442.500000	-1582.000000	1267.548828	3594.337402
442.500000	-1582.000000	1266.464844	3618.925049
442.500000	-1582.000000	1265.381836	3717.340576
442.500000	-1582.000000	1264.297852	3716.512451
442.500000	-1582.000000	1263.213867	3683.394043
442.500000	-1582.000000	1262.129883	3613.395264
442.500000	-1582.000000	1261.045898	3543.427002
442.500000	-1582.000000	1259.960938	3639.442627
442.500000	-1582.000000	1258.875977	3657.065674
442.500000	-1582.000000	1257.791016	3642.426270
442.500000	-1582.000000	1256.706055	3616.276123
442.500000	-1582.000000	1255.620117	3599.348633
442.500000	-1582.000000	1254.534180	3683.730957
442.500000	-1582.000000	1253.448242	3781.885986
442.500000	-1582.000000	1252.361328	3755.726318
442.500000	-1582.000000	1251.275391	3846.918213
442.500000	-1582.000000	1250.188477	3777.049561
442.500000	-1582.000000	1249.101563	3845.197266
442.500000	-1582.000000	1248.013672	3773.060059
442.500000	-1582.000000	1246.926758	3737.734375
442.500000	-1582.000000	1245.838867	3918.456299
442.500000	-1582.000000	1244.750977	3841.754395
442.500000	-1582.000000	1243.662109	3891.431396
442.500000	-1582.000000	1242.573242	3823.955811
442.500000	-1582.000000	1241.485352	3795.544434
442.500000	-1582.000000	1240.395508	3863.562256
442.500000	-1582.000000	1239.306641	3793.841553
442.500000	-1582.000000	1238.216797	3930.666504
442.500000	-1582.000000	1237.126953	3796.726563
442.500000	-1582.000000	1236.037109	3731.653564
442.500000	-1582.000000	1234.947266	3696.419189
442.500000	-1582.000000	1233.856445	3576.375977
442.500000	-1582.000000	1232.765625	3733.722168
442.500000	-1582.000000	1231.674805	3622.889648
442.500000	-1582.000000	1230.583984	3628.947510
442.500000	-1582.000000	1229.492188	3609.806885
442.500000	-1582.000000	1228.400391	3627.313965
442.500000	-1582.000000	1227.308594	3615.049805
442.500000	-1582.000000	1226.216797	3637.125000
442.500000	-1582.000000	1225.124023	3466.961914
442.500000	-1582.000000	1224.031250	3418.134277
442.500000	-1582.000000	1222.938477	3444.812256
442.500000	-1582.000000	1221.844727	3439.461426
442.500000	-1582.000000	1220.751953	3514.135254
442.500000	-1582.000000	1219.658203	3499.626953
442.500000	-1582.000000	1218.564453	3498.836670
442.500000	-1582.000000	1217.469727	3379.236084
442.500000	-1582.000000	1216.375000	3483.550049
442.500000	-1582.000000	1215.280273	3439.370850
442.500000	-1582.000000	1214.185547	3411.194092
442.500000	-1582.000000	1213.090820	3462.925537
442.500000	-1582.000000	1211.995117	3468.988770
442.500000	-1582.000000	1210.899414	3427.132568
442.500000	-1582.000000	1209.803711	3481.105469
442.500000	-1582.000000	1208.707031	3635.403076
442.500000	-1582.000000	1207.611328	3545.653076
442.500000	-1582.000000	1206.514648	3542.569824
442.500000	-1582.000000	1205.416992	3635.210693
442.500000	-1582.000000	1204.320313	3522.734131
442.500000	-1582.000000	1203.222656	3553.828125
442.500000	-1582.000000	1202.125000	3491.526855
442.500000	-1582.000000	1201.027344	3531.721191
442.500000	-1582.000000	1199.928711	3524.089355
442.500000	-1582.000000	1198.831055	3548.324951
442.500000	-1582.000000	1197.732422	3461.049072
442.500000	-1582.000000	1196.632813	3578.561768
442.500000	-1582.000000	1195.534180	3627.786133
442.500000	-1582.000000	1194.434570	3574.659668
442.500000	-1582.000000	1193.334961	3385.150635
442.500000	-1582.000000	1192.235352	3538.938232
442.500000	-1582.000000	1191.134766	3513.135742
442.500000	-1582.000000	1190.034180	3546.413574
442.500000	-1582.000000	1188.933594	3466.107178
442.500000	-1582.000000	1187.833008	3531.171387
442.500000	-1582.000000	1186.731445	3525.825195
442.500000	-1582.000000	1185.630859	3611.273682
442.500000	-1582.000000	1184.528320	3546.908936
442.500000	-1582.000000	1183.426758	3502.992188
442.500000	-1582.000000	1182.324219	3533.947510
442.500000	-1582.000000	1181.222656	3610.243164
442.500000	-1582.000000	1180.119141	3661.563721
442.500000	-1582.000000	1179.016602	3590.458740
442.500000	-1582.000000	1177.913086	3646.291748
442.500000	-1582.000000	1176.809570	3686.239258
442.500000	-1582.000000	1175.706055	3515.509277
442.500000	-1582.000000	1174.602539	3528.291748
442.500000	-1582.000000	1173.498047	3645.217041
442.500000	-1582.000000	1172.393555	3682.862549
442.500000	-1582.000000	1171.289063	3607.336914
442.500000	-1582.000000	1170.184570	3477.543945
442.500000	-1582.000000	1169.079102	3684.853027
442.500000	-1582.000000	1167.973633	3607.115723
442.500000	-1582.000000	1166.868164	3642.463135
442.500000	-1582.000000	1165.761719	3623.542725
442.500000	-1582.000000	1164.655273	3577.510742
442.500000	-1582.000000	1163.548828	3635.433838
442.500000	-1582.000000	1162.442383	3600.713867
442.500000	-1582.000000	1161.334961	3701.513428
442.500000	-1582.000000	1160.228516	3684.856201
442.500000	-1582.000000	1159.121094	3774.302246
442.500000	-1582.000000	1158.012695	3590.628906
442.500000	-1582.000000	1156.905273	3648.465820
442.500000	-1582.000000	1155.796875	3602.509033
442.500000	-1582.000000	1154.688477	3700.910400
442.500000	-1582.000000	1153.579102	3609.866455
442.500000	-1582.000000	1152.470703	3633.829834
442.500000	-1582.000000	1151.361328	3536.081299
442.500000	-1582.000000	1150.251953	3539.770996
442.500000	-1582.000000	1149.141602	3460.109619
442.500000	-1582.000000	1148.032227	3502.100830
442.500000	-1582.000000	1146.921875	3562.084961
442.500000	-1582.000000	1145.810547	3518.489990
442.500000	-1582.000000	1144.700195	3481.666260
442.500000	-1582.000000	1143.588867	3415.608398
442.500000	-1582.000000	1142.477539	3450.810059
442.500000	-1582.000000	1141.366211	3533.224854
442.500000	-1582.000000	1140.253906	3548.145508
442.500000	-1582.000000	1139.142578	3533.834961
442.500000	-1582.000000	1138.029297	3577.964600
442.500000	-1582.000000	1136.916992	3565.899658
442.500000	-1582.000000	1135.804688	3630.218262
442.500000	-1582.000000	1134.691406	3591.194824
442.500000	-1582.000000	1133.578125	3570.152100
442.500000	-1582.000000	1132.463867	3704.013916
442.500000	-1582.000000	1131.350586	3734.573486
442.500000	-1582.000000	1130.236328	3711.266846
442.500000	-1582.000000	1129.121094	3744.052490
442.500000	-1582.000000	1128.006836	3675.897949
442.500000	-1582.000000	1126.891602	3713.160156
442.500000	-1582.000000	1125.776367	3723.503906
442.500000	-1582.000000	1124.661133	3731.600830
442.500000	-1582.000000	1123.545898	3715.046143
442.500000	-1582.000000	1122.429688	3810.506348
442.500000	-1582.000000	1121.313477	3805.137939
442.500000	-1582.000000	1120.196289	3913.966309
442.500000	-1582.000000	1119.080078	3798.884277
442.500000	-1582.000000	1117.962891	3784.568359
442.500000	-1582.000000	1116.845703	3783.684082
442.500000	-1582.000000	1115.727539	3740.295898
442.500000	-1582.000000	1114.610352	3734.948242
442.500000	-1582.000000	1113.492188	3722.894287
442.500000	-1582.000000	1112.374023	3831.559814
442.500000	-1582.000000	1111.254883	3882.065918
442.500000	-1582.000000	1110.136719	3928.078857
442.500000	-1582.000000	1109.017578	3790.891602
442.500000	-1582.000000	1107.897461	3865.936768
442.500000	-1582.000000	1106.778320	4014.629639
442.500000	-1582.000000	1105.658203	3873.052246
442.500000	-1582.000000	1104.538086	3881.070068
442.500000	-1582.000000	1103.417969	3953.790283
442.500000	-1582.000000	1102.296875	3966.245605
442.500000	-1582.000000	1101.175781	3989.845703
442.500000	-1582.000000	1100.054688	4062.487061
442.500000	-1582.000000	1098.933594	4099.427246
442.500000	-1582.000000	1097.811523	4007.088379
442.500000	-1582.000000	1096.689453	3983.863770
442.500000	-1582.000000	1095.567383	4080.939209
442.500000	-1582.000000	1094.444336	4160.151855
442.500000	-1582.000000	1093.321289	4027.805420
442.500000	-1582.000000	1092.198242	4129.251953
442.500000	-1582.000000	1091.075195	4157.208984
442.500000	-1582.000000	1089.952148	4100.604004
442.500000	-1582.000000	1088.828125	4233.101563
442.500000	-1582.000000	1087.704102	4334.401855
442.500000	-1582.000000	1086.579102	4335.600586
442.500000	-1582.000000	1085.454102	4218.986816
442.500000	-1582.000000	1084.330078	4444.666992
442.500000	-1582.000000	1083.204102	4528.043945
442.500000	-1582.000000	1082.079102	4546.963379
442.500000	-1582.000000	1080.953125	4690.235840
442.500000	-1582.000000	1079.827148	4633.618652
442.500000	-1582.000000	1078.701172	4648.058105
442.500000	-1582.000000	1077.574219	4660.270996
442.500000	-1582.000000	1076.447266	4849.969238
442.500000	-1582.000000	1075.320313	4910.925781
442.500000	-1582.000000	1074.193359	4994.028320
442.500000	-1582.000000	1073.065430	5105.912598
442.500000	-1582.000000	1071.937500	4909.643555
442.500000	-1582.000000	1070.809570	4974.957031
442.500000	-1582.000000	1069.680664	4989.281738
442.500000	-1582.000000	1068.552734	4988.094727
442.500000	-1582.000000	1067.423828	5006.837402
442.500000	-1582.000000	1066.293945	4968.008301
442.500000	-1582.000000	1065.165039	4825.168457
442.500000	-1582.000000	1064.035156	4706.736816
442.500000	-1582.000000	1062.905273	4643.669434
442.500000	-1582.000000	1061.774414	4779.692871
442.500000	-1582.000000	1060.643555	4550.791504
442.500000	-1582.000000	1059.512695	4560.758789
442.500000	-1582.000000	1058.381836	4526.516113
442.500000	-1582.000000	1057.250977	4496.708496
442.500000	-1582.000000	1056.119141	4276.926758
442.500000	-1582.000000	1054.987305	4333.328125
442.500000	-1582.000000	1053.854492	4360.996094
442.500000	-1582.000000	1052.722656	4386.442871
442.500000	-1582.000000	1051.589844	4321.388184
442.500000	-1582.000000	1050.457031	4340.211426
442.500000	-1582.000000	1049.323242	4314.905273
442.500000	-1582.000000	1048.189453	4305.048340
442.500000	-1582.000000	1047.055664	4359.138672
442.500000	-1582.000000	1045.921875	4534.443848
442.500000	-1582.000000	1044.787109	4372.472656
442.500000	-1582.000000	1043.653320	4439.725586
442.500000	-1582.000000	1042.517578	4669.953613
442.500000	-1582.000000	1041.382813	4644.605469
442.500000	-1582.000000	1040.247070	4573.032227
442.500000	-1582.000000	1039.111328	4690.797363
442.500000	-1582.000000	1037.975586	4663.259277
442.500000	-1582.000000	1036.838867	4622.533203
442.500000	-1582.000000	1035.703125	4632.417480
442.500000	-1582.000000	1034.566406	4576.322754
442.500000	-1582.000000	1033.428711	4663.161621
442.500000	-1582.000000	1032.291016	4459.816895
442.500000	-1582.000000	1031.154297	4553.232910
442.500000	-1582.000000	1030.015625	4495.011719
442.500000	-1582.000000	1028.877930	4465.371582
442.500000	-1582.000000	1027.739258	4433.549316
442.500000	-1582.000000	1026.600586	4447.844727
442.500000	-1582.000000	1025.460938	4389.702148
442.500000	-1582.000000	1024.322266	4441.303223
442.500000	-1582.000000	1023.182617	4558.691895
442.500000	-1582.000000	1022.042969	4502.755859
442.500000	-1582.000000	1020.902344	4455.617188
442.500000	-1582.000000	1019.761719	4401.923828
442.500000	-1582.000000	1018.621094	4363.597656
442.500000	-1582.000000	1017.480469	4483.050293
442.500000	-1582.000000	1016.338867	4335.191406
442.500000	-1582.000000	1015.197266	4391.080078
442.500000	-1582.000000	1014.055664	4298.052246
442.500000	-1582.000000	1012.914063	4283.872559
442.500000	-1582.000000	1011.771484	4339.730469
442.500000	-1582.000000	1010.628906	4410.875977
442.500000	-1582.000000	1009.486328	4403.239746
442.500000	-1582.000000	1008.342773	4467.772949
442.500000	-1582.000000	1007.199219	4514.783203
442.500000	-1582.000000	1006.055664	4756.306152
442.500000	-1582.000000	1004.911133	5155.049805
442.500000	-1582.000000	1003.767578	5468.393555
442.500000	-1582.000000	1002.623047	5558.794922
442.500000	-1582.000000	1001.477539	5269.192383
442.500000	-1582.000000	1000.333008	5005.928223
442.500000	-1582.000000	999.187500	4823.547852
442.500000	-1582.000000	998.041992	4789.636719
442.500000	-1582.000000	996.895508	4753.560059
442.500000	-1582.000000	995.749023	4728.404785
442.500000	-1582.000000	994.602539	4718.524414
442.500000	-1582.000000	993.456055	4699.928711
442.500000	-1582.000000	992.308594	4629.035156
442.500000	-1582.000000	991.161133	4682.371094
442.500000	-1582.000000	990.013672	4811.921387
442.500000	-1582.000000	988.866211	4804.206055
442.500000	-1582.000000	987.717773	4796.494141
442.500000	-1582.000000	986.569336	4782.254883
442.500000	-1582.000000	985.419922	4809.369141
442.500000	-1582.000000	984.271484	4932.197754
442.500000	-1582.000000	983.122070	4839.628906
442.500000	-1582.000000	981.971680	4918.896484
442.500000	-1582.000000	980.822266	4813.330566
442.500000	-1582.000000	979.671875	4944.728027
442.500000	-1582.000000	978.521484	5047.811035
442.500000	-1582.000000	977.371094	5344.188965
442.500000	-1582.000000	976.219727	5377.620117
442.500000	-1582.000000	975.068359	5641.198242
442.500000	-1582.000000	973.916992	5937.207520
442.500000	-1582.000000	972.764648	6259.112793
442.500000	-1582.000000	971.612305	6938.866699
442.500000	-1582.000000	970.459961	7384.008301
442.500000	-1582.000000	969.307617	7904.831543
442.500000	-1582.000000	968.154297	8752.785156
442.500000	-1582.000000	967.000977	9598.149414
442.500000	-1582.000000	965.847656	10464.763672
442.500000	-1582.000000	964.693359	10992.966797
442.500000	-1582.000000	963.539063	11841.473633
442.500000	-1582.000000	962.384766	12498.997070
442.500000	-1582.000000	961.229492	13060.935547
442.500000	-1582.000000	960.075195	13042.539063
442.500000	-1582.000000	958.918945	12963.562500
442.500000	-1582.000000	957.763672	12413.022461
442.500000	-1582.000000	956.607422	12133.099609
442.500000	-1582.000000	955.451172	11271.675781
442.500000	-1582.000000	954.294922	10469.043945
442.500000	-1582.000000	953.138672	9962.887695
442.500000	-1582.000000	951.981445	9556.369141
442.500000	-1582.000000	950.824219	8754.759766
442.500000	-1582.000000	949.666016	8389.773438
442.500000	-1582.000000	948.507813	7875.998047
442.500000	-1582.000000	947.349609	7479.033691
442.500000	-1582.000000	946.191406	7144.846191
442.500000	-1582.000000	945.032227	6961.839844
442.500000	-1582.000000	943.874023	6528.731934
442.500000	-1582.000000	942.713867	6257.561035
442.500000	-1582.000000	941.554688	6068.443359
442.500000	-1582.000000	940.394531	5851.401855
442.500000	-1582.000000	939.234375	5746.510742
442.500000	-1582.000000	938.073242	5570.584473
442.500000	-1582.000000	936.913086	5386.131348
442.500000	-1582.000000	935.751953	5285.739258
442.500000	-1582.000000	934.589844	5196.158691
442.500000	-1582.000000	933.428711	4977.503906
442.500000	-1582.000000	932.266602	5027.886719
442.500000	-1582.000000	931.104492	4931.982910
442.500000	-1582.000000	929.941406	4735.060547
442.500000	-1582.000000	928.778320	4751.066406
442.500000	-1582.000000	927.615234	4739.123535
442.500000	-1582.000000	926.452148	4712.144531
442.500000	-1582.000000	925.288086	4549.842773
442.500000	-1582.000000	924.124023	4522.923340
442.500000	-1582.000000	922.959961	4659.195801
442.500000	-1582.000000	921.794922	4570.010254
442.500000	-1582.000000	920.629883	4652.550293
442.500000	-1582.000000	919.464844	4546.246094
442.500000	-1582.000000	918.299805	4575.125488
442.500000	-1582.000000	917.133789	4466.748535
442.500000	-1582.000000	915.967773	4585.672852
442.500000	-1582.000000	914.800781	4428.050781
442.500000	-1582.000000	913.634766	4302.648926
442.500000	-1582.000000	912.466797	4376.535645
442.500000	-1582.000000	911.299805	4407.550293
442.500000	-1582.000000	910.132813	4406.431641
442.500000	-1582.000000	908.964844	4373.204102
442.500000	-1582.000000	907.795898	4350.692871
442.500000	-1582.000000	906.627930	4246.891602
442.500000	-1582.000000	905.458984	4314.257813
442.500000	-1582.000000	904.290039	4362.343262
442.500000	-1582.000000	903.120117	4341.992188
442.500000	-1582.000000	901.951172	4289.590820
442.500000	-1582.000000	900.780273	4350.464355
442.500000	-1582.000000	899.610352	4351.491699
442.500000	-1582.000000	898.439453	4252.140137
442.500000	-1582.000000	897.268555	4362.082031
442.500000	-1582.000000	896.097656	4284.123535
442.500000	-1582.000000	894.926758	4201.935059
442.500000	-1582.000000	893.754883	4345.939453
442.500000	-1582.000000	892.582031	4289.371094
442.500000	-1582.000000	891.410156	4241.360840
442.500000	-1582.000000	890.237305	4391.637695
442.500000	-1582.000000	889.064453	4313.785645
442.500000	-1582.000000	887.891602	4238.103516
442.500000	-1582.000000	886.717773	4330.747070
442.500000	-1582.000000	885.543945	4329.636230
442.500000	-1582.000000	884.369141	4437.110840
442.500000	-1582.000000	883.195313	4429.585938
442.500000	-1582.000000	882.020508	4379.503418
442.500000	-1582.000000	880.844727	4382.632813
442.500000	-1582.000000	879.669922	4581.438477
442.500000	-1582.000000	878.494141	4516.468262
442.500000	-1582.000000	877.318359	4379.251465
442.500000	-1582.000000	876.141602	4456.759766
442.500000	-1582.000000	874.964844	4442.862793
442.500000	-1582.000000	873.788086	4469.332520
442.500000	-1582.000000	872.611328	4487.292480
442.500000	-1582.000000	871.433594	4422.441406
442.500000	-1582.000000	870.255859	4359.745605
442.500000	-1582.000000	869.077148	4343.765137
442.500000	-1582.000000	867.899414	4370.221680
442.500000	-1582.000000	866.720703	4398.784668
442.500000	-1582.000000	865.541016	4268.304199
442.500000	-1582.000000	864.362305	4303.236328
442.500000	-1582.000000	863.182617	4391.131348
442.500000	-1582.000000	862.001953	4546.779297
442.500000	-1582.000000	860.822266	4528.655273
442.500000	-1582.000000	859.641602	4461.833984
442.500000	-1582.000000	858.460938	4621.574219
442.500000	-1582.000000	857.279297	4548.412109
442.500000	-1582.000000	856.097656	4557.810547
442.500000	-1582.000000	854.916016	4582.011230
442.500000	-1582.000000	853.734375	4608.312988
442.500000	-1582.000000	852.551758	4530.998535
442.500000	-1582.000000	851.369141	4474.860840
442.500000	-1582.000000	850.185547	4539.205566
442.500000	-1582.000000	849.002930	4487.318848
442.500000	-1582.000000	847.819336	4562.185547
442.500000	-1582.000000	846.634766	4484.979004
442.500000	-1582.000000	845.451172	4504.918457
442.500000	-1582.000000	844.266602	4545.951660
442.500000	-1582.000000	843.081055	4555.313965
442.500000	-1582.000000	841.896484	4516.154785
442.500000	-1582.000000	840.710938	4498.103027
442.500000	-1582.000000	839.524414	4399.946289
442.500000	-1582.000000	838.338867	4518.934082
442.500000	-1582.000000	837.152344	4551.464844
442.500000	-1582.000000	835.965820	4333.291504
442.500000	-1582.000000	834.778320	4496.427734
442.500000	-1582.000000	833.590820	4541.569336
442.500000	-1582.000000	832.403320	4414.080566
442.500000	-1582.000000	831.215820	4518.141113
442.500000	-1582.000000	830.027344	4491.708008
442.500000	-1582.000000	828.838867	4372.743164
442.500000	-1582.000000	827.649414	4392.620117
442.500000	-1582.000000	826.459961	4362.033691
442.500000	-1582.000000	825.270508	4432.340820
442.500000	-1582.000000	824.081055	4443.779785
442.500000	-1582.000000	822.890625	4308.175293
442.500000	-1582.000000	821.700195	4336.438965
442.500000	-1582.000000	820.509766	4471.756836
442.500000	-1582.000000	819.318359	4395.017090
442.500000	-1582.000000	818.126953	4607.883789
442.500000	-1582.000000	816.935547	4824.833008
442.500000	-1582.000000	815.743164	5207.344727
442.500000	-1582.000000	814.550781	5587.556152
442.500000	-1582.000000	813.358398	5632.191406
442.500000	-1582.000000	812.165039	5592.980469
442.500000	-1582.000000	810.971680	5388.286133
442.500000	-1582.000000	809.778320	5156.471191
442.500000	-1582.000000	808.583984	4805.427734
442.500000	-1582.000000	807.389648	4720.419922
442.500000	-1582.000000	806.195313	4601.972168
442.500000	-1582.000000	805.000000	4316.210449
442.500000	-1582.000000	803.804688	4271.138672
442.500000	-1582.000000	802.609375	4223.999023
442.500000	-1582.000000	801.414063	4120.439453
442.500000	-1582.000000	800.217773	4202.941406
442.500000	-1582.000000	799.020508	4020.042725
442.500000	-1582.000000	797.824219	4033.593506
442.500000	-1582.000000	796.626953	4070.107666
442.500000	-1582.000000	795.429688	3960.458984
442.500000	-1582.000000	794.231445	4078.372070
442.500000	-1582.000000	793.033203	4079.369629
442.500000	-1582.000000	791.834961	4011.525146
442.500000	-1582.000000	790.636719	4006.281982
442.500000	-1582.000000	789.437500	3976.020996
442.500000	-1582.000000	788.238281	4066.670654
442.500000	-1582.000000	787.038086	3990.563477
442.500000	-1582.000000	785.837891	4051.993164
442.500000	-1582.000000	784.637695	4015.500732
442.500000	-1582.000000	783.437500	4033.163330
442.500000	-1582.000000	782.236328	3928.000732
442.500000	-1582.000000	781.035156	3868.676758
442.500000	-1582.000000	779.833008	4027.835693
442.500000	-1582.000000	778.630859	3972.675049
442.500000	-1582.000000	777.428711	3984.083252
442.500000	-1582.000000	776.226563	4043.297119
442.500000	-1582.000000	775.023438	4006.878418
442.500000	-1582.000000	773.820313	3941.390625
442.500000	-1582.000000	772.616211	3948.637207
442.500000	-1582.000000	771.413086	3943.419678
442.500000	-1582.000000	770.208984	3998.408447
442.500000	-1582.000000	769.003906	3953.744629
442.500000	-1582.000000	767.798828	4039.822754
442.500000	-1582.000000	766.593750	3928.791504
442.500000	-1582.000000	765.388672	3950.541016
442.500000	-1582.000000	764.182617	3978.497559
442.500000	-1582.000000	762.976563	3911.096191
442.500000	-1582.000000	761.769531	3868.595459
442.500000	-1582.000000	760.562500	4018.769287
442.500000	-1582.000000	759.355469	3932.770264
442.500000	-1582.000000	758.148438	3923.422119
442.500000	-1582.000000	756.940430	3899.589355
442.500000	-1582.000000	755.732422	3915.084961
442.500000	-1582.000000	754.523438	3936.777588
442.500000	-1582.000000	753.315430	4006.025146
442.500000	-1582.000000	752.105469	3839.528076
442.500000	-1582.000000	750.896484	3991.444092
442.500000	-1582.000000	749.686523	3851.904053
442.500000	-1582.000000	748.476563	3859.118652
442.500000	-1582.000000	747.265625	3843.609863
442.500000	-1582.000000	746.055664	3892.116699
442.500000	-1582.000000	744.843750	3853.898926
442.500000	-1582.000000	743.632813	3850.783447
442.500000	-1582.000000	742.420898	3907.498535
442.500000	-1582.000000	741.208984	4017.807617
442.500000	-1582.000000	739.996094	3923.920898
442.500000	-1582.000000	738.783203	3939.338867
442.500000	-1582.000000	737.570313	3874.374756
442.500000	-1582.000000	736.357422	3898.037109
442.500000	-1582.000000	735.143555	3864.013916
442.500000	-1582.000000	733.929688	3891.782959
442.500000	-1582.000000	732.714844	4018.347412
442.500000	-1582.000000	731.500000	3918.460205
442.500000	-1582.000000	730.285156	3954.418457
442.500000	-1582.000000	729.069336	3885.455078
442.500000	-1582.000000	727.853516	3985.146729
442.500000	-1582.000000	726.637695	3881.263184
442.500000	-1582.000000	725.420898	3950.071777
442.500000	-1582.000000	724.204102	3924.328857
